ALV-7004/USB-FAST
Date :	"3/14/2024"
Time :	"12:35:47 PM"
Samplename : 	""
SampMemo(0) : 	""
SampMemo(1) : 	""
SampMemo(2) : 	""
SampMemo(3) : 	""
SampMemo(4) : 	""
SampMemo(5) : 	""
SampMemo(6) : 	""
SampMemo(7) : 	""
SampMemo(8) : 	""
SampMemo(9) : 	""
Temperature [K] :	     298.16000
Viscosity [cp]  :	       0.89000
Refractive Index:	       1.33200
Wavelength [nm] :	       0.00000
Angle [°]       :	       0.00000
Duration [s]    :	         1
FloatDur [ms]   :	          944
Stop TP [ms]   :	      3924
Runs            :	         1
Mode            :	"A-CH0+1  A-CH2+3 "
MeanCR0 [kHz]   :	     124.20548
MeanCR1 [kHz]   :	     121.44089
MeanCR2 [kHz]   :	     119.89381
MeanCR3 [kHz]   :	     121.62209

"Correlation"
  3.12500E-006	 -1.00000E+000	 -1.00000E+000	 -1.00000E+000	 -1.00000E+000
  6.25000E-006	 -1.00000E+000	 -1.00000E+000	 -1.00000E+000	 -1.00000E+000
  9.37500E-006	 -1.00000E+000	 -1.00000E+000	 -1.00000E+000	 -1.00000E+000
  1.25000E-005	 -1.00000E+000	 -1.00000E+000	 -1.00000E+000	 -1.00000E+000
  1.56250E-005	 -1.00000E+000	 -1.00000E+000	 -1.00000E+000	 -1.00000E+000
  1.87500E-005	 -1.00000E+000	 -1.00000E+000	 -1.00000E+000	 -1.00000E+000
  2.18750E-005	 -9.56040E-001	 -6.09135E-001	  1.43374E-002	 -9.54153E-001
  2.50000E-005	  5.70387E+000	  5.89761E+000	  6.52497E+000	  1.22040E+001
  2.81250E-005	  2.03323E+000	  1.39117E+000	  8.63550E-001	  4.22658E+000
  3.12500E-005	  9.78192E-001	  7.01412E-001	  6.98425E-001	  2.36977E+000
  3.43750E-005	  6.92453E-001	  6.55428E-001	  9.10729E-001	  2.20930E+000
  3.75000E-005	  7.58393E-001	  7.70388E-001	  7.69193E-001	  1.49867E+000
  4.06250E-005	  6.04534E-001	  5.63459E-001	  3.44587E-001	  2.30100E+000
  4.37500E-005	  8.24333E-001	  6.32435E-001	  6.98425E-001	  1.36113E+000
  4.68750E-005	  4.94634E-001	  7.47396E-001	  7.45604E-001	  1.36113E+000
  5.00000E-005	  8.13343E-001	  4.59995E-001	  4.15354E-001	  1.36113E+000
  5.62500E-005	  9.56212E-001	  4.37003E-001	  4.62533E-001	  9.59967E-001
  6.25000E-005	  6.26514E-001	  5.05979E-001	  7.10220E-001	  1.16628E+000
  6.87500E-005	  5.38594E-001	  8.27868E-001	  2.85614E-001	  8.22425E-001
  7.50000E-005	  6.15524E-001	  4.71491E-001	  5.68684E-001	  1.16628E+000
  8.12500E-005	  6.70473E-001	  7.01411E-001	  6.27658E-001	  4.09801E-001
  8.75000E-005	  5.71564E-001	  6.32435E-001	  4.86122E-001	  6.27575E-001
  9.37500E-005	  4.61664E-001	  5.28971E-001	  4.97917E-001	  7.30731E-001
  1.00000E-004	  5.22109E-001	  5.05979E-001	  4.74327E-001	  7.13538E-001
  1.12500E-004	  6.04533E-001	  4.42751E-001	  5.74582E-001	  6.10382E-001
  1.25000E-004	  3.84734E-001	  4.71491E-001	  3.97662E-001	  8.39618E-001
  1.37500E-004	  4.83644E-001	  5.17475E-001	  6.98425E-001	  4.49917E-001
  1.50000E-004	  3.79239E-001	  5.17475E-001	  6.57144E-001	  4.90033E-001
  1.62500E-004	  5.38594E-001	  5.40467E-001	  5.09711E-001	  5.58804E-001
  1.75000E-004	  4.67159E-001	  6.15191E-001	  4.86122E-001	  5.35880E-001
  1.87500E-004	  4.67159E-001	  3.45035E-001	  5.15608E-001	  5.18688E-001
  2.00000E-004	  4.91886E-001	  5.54837E-001	  3.79970E-001	  6.07516E-001
  2.25000E-004	  5.27603E-001	  5.86451E-001	  4.27149E-001	  4.67109E-001
  2.50000E-004	  4.75401E-001	  5.37593E-001	  6.07016E-001	  6.53363E-001
  2.75000E-004	  5.55078E-001	  4.08262E-001	  4.86122E-001	  5.41611E-001
  3.00000E-004	  3.84734E-001	  4.16884E-001	  5.65735E-001	  4.67109E-001
  3.25000E-004	  4.61664E-001	  5.37593E-001	  5.18557E-001	  4.95764E-001
  3.50000E-004	  4.58916E-001	  5.08853E-001	  5.27403E-001	  5.24418E-001
  3.75000E-004	  5.02876E-001	  4.94483E-001	  4.12405E-001	  5.47342E-001
  4.00000E-004	  5.52330E-001	  4.47061E-001	  4.92018E-001	  5.63101E-001
  4.50000E-004	  4.63037E-001	  5.11726E-001	  5.37722E-001	  5.57370E-001
  5.00000E-004	  4.47926E-001	  4.71490E-001	  4.59583E-001	  5.25850E-001
  5.50000E-004	  4.97380E-001	  4.58557E-001	  5.24453E-001	  4.72840E-001
  6.00000E-004	  4.08087E-001	  4.95919E-001	  5.42145E-001	  5.08658E-001
  6.50000E-004	  4.93259E-001	  4.91608E-001	  5.40671E-001	  5.30148E-001
  7.00000E-004	  4.32815E-001	  5.11726E-001	  4.28622E-001	  6.01785E-001
  7.50000E-004	  4.85017E-001	  4.42750E-001	  4.55160E-001	  5.33014E-001
  8.00000E-004	  5.03561E-001	  5.05977E-001	  4.25672E-001	  5.03642E-001
  9.00000E-004	  5.07682E-001	  4.80829E-001	  4.80960E-001	  4.97195E-001
  1.00000E-003	  4.17015E-001	  4.88733E-001	  5.07497E-001	  5.58802E-001
  1.10000E-003	  5.13177E-001	  4.56400E-001	  5.35510E-001	  5.19402E-001
  1.20000E-003	  4.52733E-001	  5.03821E-001	  5.68682E-001	  5.63100E-001
  1.30000E-003	  4.43116E-001	  5.15317E-001	  4.74325E-001	  4.66391E-001
  1.40000E-003	  5.28288E-001	  4.65741E-001	  4.81697E-001	  5.17969E-001
  1.50000E-003	  4.85702E-001	  4.70770E-001	  4.27884E-001	  4.98627E-001
  1.60000E-003	  4.69558E-001	  5.36870E-001	  4.78377E-001	  5.10803E-001
  1.80000E-003	  4.55821E-001	  4.83341E-001	  4.75060E-001	  5.27637E-001
  2.00000E-003	  4.98407E-001	  4.83701E-001	  4.57737E-001	  5.00774E-001
  2.20000E-003	  4.33841E-001	  4.94837E-001	  4.85380E-001	  5.06863E-001
  2.40000E-003	  4.86387E-001	  4.67894E-001	  4.84274E-001	  5.23697E-001
  2.60000E-003	  5.04589E-001	  4.71845E-001	  4.90909E-001	  5.28712E-001
  2.80000E-003	  4.54447E-001	  5.12441E-001	  5.14498E-001	  4.48838E-001
  3.00000E-003	  4.83639E-001	  4.62505E-001	  5.19658E-001	  4.96117E-001
  3.20000E-003	  4.55644E-001	  4.69339E-001	  4.73409E-001	  5.35333E-001
  3.60000E-003	  4.56675E-001	  4.78140E-001	  4.83361E-001	  5.02201E-001
  4.00000E-003	  4.50149E-001	  4.86223E-001	  4.82624E-001	  4.96650E-001
  4.40000E-003	  4.53412E-001	  4.99516E-001	  4.83730E-001	  5.08470E-001
  4.80000E-003	  4.35038E-001	  4.62692E-001	  4.71935E-001	  5.05246E-001
  5.20000E-003	  4.53069E-001	  4.80655E-001	  5.11742E-001	  5.12768E-001
  5.60000E-003	  4.56331E-001	  4.56046E-001	  4.52769E-001	  5.02560E-001
  6.00000E-003	  4.31432E-001	  4.59459E-001	  4.71013E-001	  5.02022E-001
  6.40000E-003	  4.43026E-001	  4.68328E-001	  4.79770E-001	  5.02947E-001
  7.20000E-003	  4.39162E-001	  4.75244E-001	  4.75532E-001	  4.88709E-001
  8.00000E-003	  4.52470E-001	  4.59346E-001	  4.74610E-001	  4.81916E-001
  8.80000E-003	  4.48705E-001	  4.61065E-001	  4.84746E-001	  5.10392E-001
  9.60000E-003	  4.55058E-001	  4.76052E-001	  4.74334E-001	  4.96244E-001
  1.04000E-002	  4.51023E-001	  4.71112E-001	  4.54707E-001	  5.12004E-001
  1.12000E-002	  4.17538E-001	  4.54316E-001	  4.60328E-001	  4.89080E-001
  1.20000E-002	  4.45454E-001	  4.56831E-001	  4.77098E-001	  4.88812E-001
  1.28000E-002	  4.53303E-001	  4.69039E-001	  4.62051E-001	  4.89265E-001
  1.44000E-002	  4.39094E-001	  4.47476E-001	  4.49289E-001	  4.94446E-001
  1.60000E-002	  4.37830E-001	  4.43524E-001	  4.61511E-001	  4.73210E-001
  1.76000E-002	  4.51482E-001	  4.25246E-001	  4.51052E-001	  4.65465E-001
  1.92000E-002	  4.14028E-001	  4.45443E-001	  4.55153E-001	  4.79210E-001
  2.08000E-002	  4.25460E-001	  4.43422E-001	  4.44937E-001	  4.76165E-001
  2.24000E-002	  4.10961E-001	  4.31778E-001	  4.43325E-001	  4.72763E-001
  2.40000E-002	  4.31139E-001	  4.38828E-001	  4.46043E-001	  4.53645E-001
  2.56000E-002	  4.12590E-001	  4.37603E-001	  4.32698E-001	  4.59700E-001
  2.88000E-002	  4.03574E-001	  4.24803E-001	  4.27906E-001	  4.52875E-001
  3.20000E-002	  3.95677E-001	  4.19166E-001	  4.23160E-001	  4.46562E-001
  3.52000E-002	  3.85128E-001	  3.99168E-001	  4.17066E-001	  4.47784E-001
  3.84000E-002	  3.84474E-001	  3.96788E-001	  4.09993E-001	  4.33110E-001
  4.16000E-002	  3.72862E-001	  3.89117E-001	  4.06284E-001	  4.25988E-001
  4.48000E-002	  3.70460E-001	  3.89172E-001	  3.91573E-001	  4.16742E-001
  4.80000E-002	  3.60694E-001	  3.69490E-001	  3.84892E-001	  4.00378E-001
  5.12000E-002	  3.51500E-001	  3.62334E-001	  3.76350E-001	  3.99792E-001
  5.76000E-002	  3.33466E-001	  3.58089E-001	  3.55613E-001	  3.87189E-001
  6.40000E-002	  3.24848E-001	  3.40966E-001	  3.55476E-001	  3.72583E-001
  7.04000E-002	  3.15448E-001	  3.23405E-001	  3.33634E-001	  3.62609E-001
  7.68000E-002	  3.00367E-001	  3.19138E-001	  3.25006E-001	  3.44643E-001
  8.32000E-002	  2.87432E-001	  2.95456E-001	  3.10768E-001	  3.41509E-001
  8.96000E-002	  2.73854E-001	  2.90402E-001	  3.01332E-001	  3.36182E-001
  9.60000E-002	  2.64246E-001	  2.74817E-001	  2.87589E-001	  3.17185E-001
  1.02400E-001	  2.54014E-001	  2.66919E-001	  2.74985E-001	  3.08454E-001
  1.15200E-001	  2.28734E-001	  2.43332E-001	  2.57829E-001	  2.90332E-001
  1.28000E-001	  2.18132E-001	  2.27097E-001	  2.39360E-001	  2.70838E-001
  1.40800E-001	  2.00520E-001	  2.12256E-001	  2.20440E-001	  2.54546E-001
  1.53600E-001	  1.80065E-001	  2.02115E-001	  2.04511E-001	  2.43760E-001
  1.66400E-001	  1.69110E-001	  1.90654E-001	  1.89546E-001	  2.26360E-001
  1.79200E-001	  1.55360E-001	  1.73152E-001	  1.78505E-001	  2.16934E-001
  1.92000E-001	  1.41421E-001	  1.56794E-001	  1.65601E-001	  1.91007E-001
  2.04800E-001	  1.33482E-001	  1.50507E-001	  1.55653E-001	  1.81202E-001
  2.30400E-001	  1.20298E-001	  1.27296E-001	  1.34598E-001	  1.61775E-001
  2.56000E-001	  1.12441E-001	  1.14307E-001	  1.19905E-001	  1.46921E-001
  2.81600E-001	  9.62724E-002	  9.90428E-002	  1.09012E-001	  1.32253E-001
  3.07200E-001	  8.82476E-002	  8.81469E-002	  9.12907E-002	  1.16440E-001
  3.32800E-001	  8.05237E-002	  7.56973E-002	  8.54417E-002	  1.08713E-001
  3.58400E-001	  6.90400E-002	  7.00854E-002	  7.46494E-002	  9.62250E-002
  3.84000E-001	  6.45294E-002	  5.55287E-002	  6.63447E-002	  9.72247E-002
  4.09600E-001	  5.69127E-002	  5.00259E-002	  6.03427E-002	  8.98703E-002
  4.60800E-001	  4.67181E-002	  4.25936E-002	  4.83492E-002	  7.23383E-002
  5.12000E-001	  4.34548E-002	  3.29338E-002	  4.36348E-002	  6.81231E-002
  5.63200E-001	  3.81750E-002	  2.50882E-002	  3.77628E-002	  5.78059E-002
  6.14400E-001	  3.75283E-002	  2.32983E-002	  3.06657E-002	  5.62632E-002
  6.65600E-001	  2.94275E-002	  2.23121E-002	  2.89002E-002	  5.01110E-002
  7.16800E-001	  2.45412E-002	  1.57971E-002	  2.63191E-002	  4.39684E-002
  7.68000E-001	  2.40397E-002	  9.30875E-003	  2.31436E-002	  3.95975E-002
  8.19200E-001	  2.37474E-002	  9.46947E-003	  2.42653E-002	  3.37292E-002
  9.21600E-001	  2.06031E-002	  6.33427E-003	  2.42447E-002	  2.81847E-002
  1.02400E+000	  1.76922E-002	  5.48804E-004	  1.58712E-002	  2.71526E-002
  1.12640E+000	  9.90792E-003	  2.84553E-003	  1.39000E-002	  2.17656E-002
  1.22880E+000	  5.80646E-003	  8.08153E-004	  9.75068E-003	  1.33528E-002
  1.33120E+000	  4.23948E-003	  1.55410E-003	  7.06789E-003	  1.20427E-002
  1.43360E+000	  7.79883E-004	  2.95733E-003	  5.71959E-003	  6.71246E-003
  1.53600E+000	 -5.06431E-003	  5.03320E-003	 -1.11220E-003	  2.15264E-004
  1.63840E+000	 -3.43260E-003	  2.47898E-003	  4.11417E-003	  3.47877E-003
  1.84320E+000	 -5.04567E-004	 -5.63803E-003	  3.58741E-003	  6.78137E-003
  2.04800E+000	  8.10922E-003	 -1.07012E-002	 -2.67384E-003	  2.35254E-003
  2.25280E+000	  2.78074E-003	 -9.39648E-003	 -8.36735E-003	 -1.09842E-002
  2.45760E+000	  2.74017E-004	 -5.77346E-003	  1.66679E-003	 -6.47753E-003
  2.66240E+000	 -1.21219E-003	 -4.80261E-003	  1.34980E-003	 -9.56372E-003
  2.86720E+000	 -2.35146E-003	  1.67705E-003	  3.28051E-003	 -1.04296E-002
  3.07200E+000	 -6.94330E-003	  4.09348E-003	  6.20552E-003	 -7.17106E-003
  3.27680E+000	  3.93703E-004	  1.76581E-003	  1.16211E-002	 -3.01681E-003
  3.68640E+000	  3.22475E-003	 -2.44542E-003	  1.28722E-002	 -8.96455E-003
  4.09600E+000	  2.59411E-003	 -2.49041E-003	  7.03278E-003	 -9.63011E-003
  4.50560E+000	  8.31074E-003	 -1.19093E-003	 -5.16303E-004	  2.13824E-003
  4.91520E+000	  1.04702E-002	 -1.77698E-003	  4.05744E-003	 -2.39347E-003
  5.32480E+000	  3.35947E-003	  1.06602E-002	  2.76503E-003	  5.80888E-003
  5.73440E+000	  7.68688E-003	  1.33523E-002	  6.82713E-003	  1.31205E-002
  6.14400E+000	  3.94906E-003	  1.19545E-002	  6.46966E-003	  5.16985E-003
  6.55360E+000	  1.91971E-003	  4.51828E-003	 -5.49089E-004	 -4.52464E-004
  7.37280E+000	  5.36667E-003	 -8.78616E-003	 -5.51339E-003	  1.27882E-003
  8.19200E+000	 -9.28801E-004	  2.40214E-003	 -1.01018E-002	  2.19179E-004
  9.01120E+000	 -4.04928E-004	  3.15434E-003	 -1.52892E-003	 -9.31804E-004
  9.83040E+000	 -9.44370E-003	 -1.21937E-003	  4.79040E-003	 -1.12756E-003
  1.06496E+001	 -2.21670E-003	 -8.09641E-003	  5.90072E-003	 -2.85666E-003
  1.14688E+001	  5.30826E-003	 -5.48358E-003	  1.39888E-002	  3.34295E-003
  1.22880E+001	 -4.69196E-003	 -8.07769E-003	 -8.55001E-004	  5.47775E-003
  1.31072E+001	 -2.44730E-003	 -4.92933E-003	 -3.14542E-003	  8.80648E-003
  1.47456E+001	  3.29279E-004	 -1.76812E-003	 -6.68275E-003	 -2.24587E-003
  1.63840E+001	  3.37449E-003	 -2.78416E-003	 -1.57742E-004	  3.01903E-003
  1.80224E+001	 -5.27265E-003	 -3.88623E-003	  6.69297E-004	 -1.13914E-002
  1.96608E+001	  2.62763E-003	  2.13557E-003	 -6.87913E-003	 -1.51198E-003
  2.12992E+001	  2.24943E-004	  2.02346E-003	  4.29494E-003	  2.71357E-003
  2.29376E+001	  2.45723E-005	  5.53426E-003	 -2.31450E-003	 -2.17939E-003
  2.45760E+001	 -1.97767E-003	  4.85238E-003	 -1.94128E-003	 -3.32777E-003
  2.62144E+001	  1.35971E-003	  3.51204E-003	 -1.83787E-003	  3.08497E-003
  2.94912E+001	  2.37722E-003	  2.34904E-003	 -4.15061E-003	  3.88676E-004
  3.27680E+001	 -2.35154E-003	 -6.66880E-004	 -8.40074E-003	 -3.18626E-003
  3.60448E+001	  6.03164E-005	 -1.16506E-003	  1.62182E-003	 -7.23946E-003
  3.93216E+001	 -5.54853E-003	 -7.76887E-003	 -1.34788E-003	 -7.56825E-003
  4.25984E+001	 -6.54942E-005	  5.54618E-004	 -6.34876E-003	  5.55965E-003
  4.58752E+001	  9.65455E-004	 -7.06469E-005	  1.89321E-003	 -8.35298E-003
  4.91520E+001	  3.51097E-003	 -5.26883E-003	 -4.29873E-004	 -2.01548E-003
  5.24288E+001	 -4.10151E-004	  5.30508E-004	  2.72739E-003	  3.60877E-003
  5.89824E+001	 -8.40048E-004	  2.41012E-004	  3.49958E-003	 -1.70534E-003
  6.55360E+001	  1.01827E-003	  4.90161E-004	 -3.76929E-003	  2.72654E-004
  7.20896E+001	 -3.35281E-003	 -4.54318E-003	  3.03083E-003	  3.17026E-003
  7.86432E+001	 -2.11277E-003	  1.49460E-003	 -1.00405E-003	  1.28527E-003
  8.51968E+001	 -1.67037E-003	 -3.01934E-003	  9.99649E-004	 -1.02798E-003
  9.17504E+001	 -3.16034E-003	 -2.45326E-004	  9.36423E-004	  3.09000E-003
  9.83040E+001	 -2.19178E-004	  1.44885E-003	 -2.49290E-003	  1.87636E-004
  1.04858E+002	  2.88086E-003	  5.65717E-004	 -2.55093E-003	  5.68336E-004
  1.17965E+002	  2.31086E-003	 -1.29352E-003	 -1.03350E-004	 -2.58306E-003
  1.31072E+002	 -2.42777E-003	  1.24345E-003	 -2.08289E-003	 -3.34745E-003
  1.44179E+002	 -2.35187E-003	 -1.99896E-003	  2.43669E-003	 -6.58648E-004
  1.57286E+002	  1.91293E-004	  1.37669E-003	 -1.92180E-003	  6.19366E-003
  1.70394E+002	 -3.37649E-003	 -1.34605E-003	  5.46657E-004	 -1.94873E-004
  1.83501E+002	 -2.56852E-003	  1.80339E-003	 -3.93575E-003	 -7.20738E-004
  1.96608E+002	 -1.66865E-004	  1.26114E-003	 -9.97541E-004	  1.98415E-003
  2.09715E+002	  3.11643E-003	  1.28177E-003	 -4.05126E-004	 -1.70334E-003
  2.35930E+002	 -4.34293E-003	 -5.51352E-004	  7.35446E-005	  8.57594E-004
  2.62144E+002	  1.40993E-003	 -2.07717E-003	  9.03924E-004	  2.13779E-003
  2.88358E+002	 -2.34163E-003	 -2.17384E-003	  5.73806E-005	 -3.39425E-003
  3.14573E+002	  3.33354E-003	 -3.53753E-004	  2.20121E-004	  5.24461E-003
  3.40787E+002	 -7.79875E-004	  6.65079E-004	  1.21850E-003	  5.09571E-004
  3.67002E+002	  3.23548E-003	  3.24752E-003	 -2.78731E-003	 -1.27355E-003
  3.93216E+002	 -5.96950E-004	  1.12731E-003	  3.13998E-003	 -8.52993E-004

"Count Rate"
       0.01311	     116.34827	     134.58252	     129.24194	     115.58533
       0.02621	      86.82251	     125.57983	     123.90137	      98.57178
       0.03932	     129.54712	     113.60168	     168.83850	     114.59351
       0.05243	     130.08118	     130.00488	     137.55798	     153.42712
       0.06554	     121.76514	     107.87964	     114.66980	     172.42432
       0.07864	     157.92847	     142.66968	     113.83057	     112.53357
       0.09175	     110.62622	     100.09766	     122.14661	     148.54431
       0.10486	     110.47363	     107.72705	     127.71606	      99.63989
       0.11796	     128.86047	     101.31836	     105.05676	     124.20654
       0.13107	     104.59900	     113.52539	     138.16833	      94.83337
       0.14418	     112.15210	     141.06750	      96.58813	     138.47351
       0.15729	     108.94775	     120.62073	      96.28296	     111.46545
       0.17039	     121.30737	     137.25281	     116.80603	     117.11121
       0.18350	     122.83325	     104.52271	     125.35095	     137.55798
       0.19661	     111.00769	     155.25818	     129.85229	     139.38904
       0.20972	     116.88232	     114.36462	     107.11670	     143.20374
       0.22282	     123.82507	     113.44910	      99.63989	     121.61255
       0.23593	     134.96399	     111.08398	     112.60986	     114.66980
       0.24904	      95.36743	     127.86865	     137.10022	     147.62878
       0.26214	     114.28833	     121.38367	     105.43823	     122.29919
       0.27525	     127.48718	     110.47363	      96.20667	     115.50903
       0.28836	     127.94495	     111.77063	     132.52258	     109.48181
       0.30147	     119.24744	     108.87146	     103.30200	     109.71069
       0.31457	     138.39722	     107.34558	     119.17114	     119.85779
       0.32768	     134.42993	     130.99670	     137.78687	      96.43555
       0.34079	     142.82227	     109.48181	     137.10022	     132.06482
       0.35389	     126.11389	     120.54443	     112.45728	     118.10303
       0.36700	     134.20105	     126.80054	     106.73523	     134.12476
       0.38011	     128.78418	     131.45447	     132.21741	     110.62622
       0.39322	     132.29370	     132.90405	     130.23376	      98.34290
       0.40632	     121.30737	     122.29919	     107.26929	     128.55530
       0.41943	     120.31555	     133.89587	     139.92310	     109.10034
       0.43254	     129.85229	     114.13574	     137.40540	     102.76794
       0.44564	     133.13293	     121.84143	     102.99683	     123.59619
       0.45875	     124.13025	     121.99402	     109.78699	     127.41089
       0.47186	     114.74609	     113.22021	     120.77332	     124.96948
       0.48497	     129.85229	     116.95862	      91.55273	     109.71069
       0.49807	     116.42456	     104.14124	     123.59619	     112.60986
       0.51118	      97.12219	     142.28821	     133.28552	     142.82227
       0.52429	     104.67529	     108.64258	     121.30737	     130.76782
       0.53740	     135.34546	     140.91492	     112.07581	     112.07581
       0.55050	     121.68884	     109.93958	     100.40283	     122.14661
       0.56361	     134.12476	     146.56067	     116.88232	     119.47632
       0.57672	     128.63159	     114.74609	     129.39453	     101.77612
       0.58982	     114.36462	     108.03223	     139.08386	     122.98584
       0.60293	     129.08936	     123.36731	     100.63171	     139.69421
       0.61604	     106.43005	     123.13843	     113.83057	      99.79248
       0.62915	     125.96130	     108.56628	     115.81421	      95.29114
       0.64225	     142.66968	     126.11389	     148.16284	     102.46277
       0.65536	     126.64795	     101.08948	      97.50366	     105.89600
       0.66847	     124.20654	     134.73511	     124.20654	     145.18738
       0.68157	     124.96948	      96.20667	     120.39185	     147.17102
       0.69468	     120.16296	     113.29651	     117.72156	     100.55542
       0.70779	     118.71338	      99.10583	     113.52539	      96.89331
       0.72090	     110.62622	     108.03223	     101.69983	     110.39734
       0.73400	     111.92322	     113.22021	     144.42444	     106.43005
       0.74711	     137.40540	     126.49536	      92.31567	     112.15210
       0.76022	     188.06458	     156.25000	     113.75427	     128.78418
       0.77332	     127.56348	     132.14111	      96.96960	     114.13574
       0.78643	     122.29919	     105.81970	     136.18469	     137.48169
       0.79954	     117.64526	     100.02136	     132.67517	     104.29382
       0.81265	     121.76514	     113.75427	     136.18469	      99.25842
       0.82575	     115.81421	     101.08948	     102.76794	     139.38904
       0.83886	     112.60986	     127.63977	     119.24744	     117.34009
       0.85197	      96.35925	     105.89600	     129.92859	     120.39185
       0.86508	     115.58533	     136.33728	      95.52002	     103.53088
       0.87818	     102.53906	     100.17395	     100.32654	     115.66162
       0.89129	     151.36719	     130.92041	     118.63708	     108.79517
       0.90440	     122.07031	     134.73511	     122.98584	     145.26367
       0.91750	     118.71338	      88.27209	     105.97229	     132.75146
       0.93061	     113.67798	     137.32910	     106.73523	     113.06763

Monitor Diode	      1.00
