ALV-7004/USB-FAST
Date :	"3/14/2024"
Time :	"12:35:44 PM"
Samplename : 	""
SampMemo(0) : 	""
SampMemo(1) : 	""
SampMemo(2) : 	""
SampMemo(3) : 	""
SampMemo(4) : 	""
SampMemo(5) : 	""
SampMemo(6) : 	""
SampMemo(7) : 	""
SampMemo(8) : 	""
SampMemo(9) : 	""
Temperature [K] :	     298.16000
Viscosity [cp]  :	       0.89000
Refractive Index:	       1.33200
Wavelength [nm] :	       0.00000
Angle [°]       :	       0.00000
Duration [s]    :	         1
FloatDur [ms]   :	          944
Stop TP [ms]   :	      3922
Runs            :	         1
Mode            :	"A-CH0+1  A-CH2+3 "
MeanCR0 [kHz]   :	     122.84067
MeanCR1 [kHz]   :	     120.70232
MeanCR2 [kHz]   :	     118.38913
MeanCR3 [kHz]   :	     119.55261

"Correlation"
  3.12500E-006	 -1.00000E+000	 -1.00000E+000	 -1.00000E+000	 -1.00000E+000
  6.25000E-006	 -1.00000E+000	 -1.00000E+000	 -1.00000E+000	 -1.00000E+000
  9.37500E-006	 -1.00000E+000	 -1.00000E+000	 -1.00000E+000	 -1.00000E+000
  1.25000E-005	 -1.00000E+000	 -1.00000E+000	 -1.00000E+000	 -1.00000E+000
  1.56250E-005	 -1.00000E+000	 -1.00000E+000	 -1.00000E+000	 -1.00000E+000
  1.87500E-005	 -1.00000E+000	 -1.00000E+000	 -1.00000E+000	 -1.00000E+000
  2.18750E-005	 -9.10116E-001	 -4.87966E-001	 -1.04871E-001	 -9.76276E-001
  2.50000E-005	  6.43791E+000	  6.58742E+000	  5.87072E+000	  1.26887E+001
  2.81250E-005	  2.03359E+000	  1.37398E+000	  1.46765E+000	  4.33787E+000
  3.12500E-005	  9.54981E-001	  1.00159E+000	  8.62836E-001	  2.77210E+000
  3.43750E-005	  8.20154E-001	  9.08491E-001	  6.69295E-001	  2.34507E+000
  3.75000E-005	  7.07799E-001	  6.05926E-001	  2.58019E-001	  1.87059E+000
  4.06250E-005	  8.20154E-001	  4.89554E-001	  5.72524E-001	  1.53845E+000
  4.37500E-005	  3.03320E-001	  1.00159E+000	  2.33826E-001	  1.30122E+000
  4.68750E-005	  3.48262E-001	  1.09469E+000	  4.75753E-001	  1.32494E+000
  5.00000E-005	  5.95444E-001	  7.33934E-001	  4.51560E-001	  1.21818E+000
  5.62500E-005	  6.40386E-001	  5.36103E-001	  5.24138E-001	  1.01653E+000
  6.25000E-005	  5.61737E-001	  6.05925E-001	  5.84620E-001	  7.79290E-001
  6.87500E-005	  7.97683E-001	  4.08094E-001	  5.60427E-001	  8.50462E-001
  7.50000E-005	  6.62857E-001	  4.89554E-001	  6.08813E-001	  8.97910E-001
  8.12500E-005	  4.38147E-001	  4.31368E-001	  5.12042E-001	  5.77637E-001
  8.75000E-005	  6.62857E-001	  5.01191E-001	  3.66886E-001	  7.43704E-001
  9.37500E-005	  4.83089E-001	  3.03360E-001	  4.03175E-001	  8.50462E-001
  1.00000E-004	  5.78590E-001	  4.72098E-001	  3.85030E-001	  6.42878E-001
  1.12500E-004	  5.16795E-001	  5.30284E-001	  3.85030E-001	  6.07292E-001
  1.25000E-004	  2.41525E-001	  3.32452E-001	  4.93897E-001	  7.37773E-001
  1.37500E-004	  5.56119E-001	  4.25550E-001	  5.36235E-001	  5.24258E-001
  1.50000E-004	  4.99942E-001	  4.89554E-001	  3.91079E-001	  5.65775E-001
  1.62500E-004	  4.55000E-001	  4.48824E-001	  4.27368E-001	  5.24258E-001
  1.75000E-004	  6.01061E-001	  4.37187E-001	  4.03175E-001	  7.49635E-001
  1.87500E-004	  4.15675E-001	  3.79001E-001	  4.45512E-001	  5.59844E-001
  2.00000E-004	  5.22412E-001	  4.72098E-001	  4.75753E-001	  4.70879E-001
  2.25000E-004	  5.02750E-001	  4.19731E-001	  5.60427E-001	  3.78949E-001
  2.50000E-004	  3.51071E-001	  5.36102E-001	  5.60427E-001	  4.61983E-001
  2.75000E-004	  4.83088E-001	  5.65195E-001	  5.09017E-001	  5.27224E-001
  3.00000E-004	  4.88706E-001	  5.36102E-001	  4.12247E-001	  5.68740E-001
  3.25000E-004	  5.05559E-001	  5.62286E-001	  4.96921E-001	  5.56878E-001
  3.50000E-004	  4.49382E-001	  4.63370E-001	  5.81595E-001	  4.82741E-001
  3.75000E-004	  4.74661E-001	  4.37186E-001	  4.69704E-001	  4.53087E-001
  4.00000E-004	  4.94323E-001	  4.92462E-001	  4.68192E-001	  4.72362E-001
  4.50000E-004	  4.47977E-001	  4.11002E-001	  5.74035E-001	  5.49464E-001
  5.00000E-004	  4.83088E-001	  4.66279E-001	  5.34722E-001	  4.78292E-001
  5.50000E-004	  4.57808E-001	  4.60460E-001	  4.89360E-001	  4.70879E-001
  6.00000E-004	  4.57808E-001	  5.53557E-001	  5.34722E-001	  5.42050E-001
  6.50000E-004	  5.56118E-001	  4.89553E-001	  5.18089E-001	  4.20466E-001
  7.00000E-004	  3.98821E-001	  4.98281E-001	  4.59119E-001	  4.60500E-001
  7.50000E-004	  5.05559E-001	  4.05184E-001	  4.28879E-001	  4.76810E-001
  8.00000E-004	  4.97833E-001	  4.55368E-001	  5.04479E-001	  5.45042E-001
  9.00000E-004	  4.22695E-001	  5.34645E-001	  4.94651E-001	  4.80528E-001
  1.00000E-003	  5.18197E-001	  4.40821E-001	  4.74995E-001	  4.31598E-001
  1.10000E-003	  4.92917E-001	  4.77187E-001	  5.02211E-001	  4.18253E-001
  1.20000E-003	  4.21291E-001	  4.69914E-001	  4.37194E-001	  4.83494E-001
  1.30000E-003	  4.68340E-001	  5.16462E-001	  3.90320E-001	  5.47252E-001
  1.40000E-003	  5.03451E-001	  4.70641E-001	  4.47022E-001	  4.40494E-001
  1.50000E-003	  4.65531E-001	  4.66277E-001	  4.59874E-001	  4.78304E-001
  1.60000E-003	  4.79924E-001	  4.67002E-001	  4.69322E-001	  4.98729E-001
  1.80000E-003	  5.30132E-001	  4.83003E-001	  5.08635E-001	  4.76117E-001
  2.00000E-003	  5.02746E-001	  5.25915E-001	  4.71968E-001	  4.64625E-001
  2.20000E-003	  4.83435E-001	  4.52092E-001	  4.97673E-001	  4.79083E-001
  2.40000E-003	  4.80977E-001	  4.84822E-001	  4.58738E-001	  4.60164E-001
  2.60000E-003	  4.71848E-001	  5.01550E-001	  5.32072E-001	  4.66453E-001
  2.80000E-003	  4.68337E-001	  4.85549E-001	  4.70078E-001	  4.76832E-001
  3.00000E-003	  4.42706E-001	  4.61184E-001	  4.79906E-001	  4.56815E-001
  3.20000E-003	  4.57272E-001	  4.60088E-001	  4.83114E-001	  4.66487E-001
  3.60000E-003	  4.57799E-001	  4.48451E-001	  4.82547E-001	  4.48508E-001
  4.00000E-003	  4.79041E-001	  4.56997E-001	  4.59678E-001	  4.68155E-001
  4.40000E-003	  4.64997E-001	  4.41541E-001	  4.44747E-001	  4.75000E-001
  4.80000E-003	  4.79743E-001	  4.48633E-001	  4.82358E-001	  4.95759E-001
  5.20000E-003	  4.74477E-001	  4.79725E-001	  4.42100E-001	  4.65918E-001
  5.60000E-003	  4.77637E-001	  4.52815E-001	  4.46259E-001	  4.51818E-001
  6.00000E-003	  4.50426E-001	  4.63361E-001	  4.56654E-001	  4.51806E-001
  6.40000E-003	  4.73175E-001	  4.75715E-001	  4.62976E-001	  4.48048E-001
  7.20000E-003	  4.50265E-001	  4.64805E-001	  4.70158E-001	  4.57315E-001
  8.00000E-003	  4.63695E-001	  4.57623E-001	  4.54187E-001	  4.47677E-001
  8.80000E-003	  4.60974E-001	  4.46532E-001	  4.45398E-001	  4.65470E-001
  9.60000E-003	  4.54391E-001	  4.52454E-001	  4.50218E-001	  4.45916E-001
  1.04000E-002	  4.68611E-001	  4.52557E-001	  4.39728E-001	  4.48789E-001
  1.12000E-002	  4.52284E-001	  4.71468E-001	  4.59006E-001	  4.57209E-001
  1.20000E-002	  4.54128E-001	  4.54649E-001	  4.41524E-001	  4.60811E-001
  1.28000E-002	  4.54039E-001	  4.37731E-001	  4.45048E-001	  4.52224E-001
  1.44000E-002	  4.36458E-001	  4.43972E-001	  4.43063E-001	  4.46895E-001
  1.60000E-002	  4.51863E-001	  4.44199E-001	  4.40701E-001	  4.35416E-001
  1.76000E-002	  4.43217E-001	  4.27834E-001	  4.29172E-001	  4.26983E-001
  1.92000E-002	  4.39223E-001	  4.39835E-001	  4.25675E-001	  4.41996E-001
  2.08000E-002	  4.37029E-001	  4.31016E-001	  4.28841E-001	  4.23427E-001
  2.24000E-002	  4.22457E-001	  4.19834E-001	  4.18163E-001	  4.25281E-001
  2.40000E-002	  4.29185E-001	  4.23334E-001	  4.21943E-001	  4.14703E-001
  2.56000E-002	  4.20879E-001	  4.19140E-001	  3.97029E-001	  4.23028E-001
  2.88000E-002	  4.18706E-001	  4.11150E-001	  4.08983E-001	  4.06821E-001
  3.20000E-002	  3.98995E-001	  4.09049E-001	  3.94407E-001	  4.01492E-001
  3.52000E-002	  3.85947E-001	  3.99924E-001	  3.96486E-001	  3.89363E-001
  3.84000E-002	  3.84982E-001	  3.90036E-001	  3.86799E-001	  3.81240E-001
  4.16000E-002	  3.81885E-001	  3.88173E-001	  3.80917E-001	  3.71555E-001
  4.48000E-002	  3.81710E-001	  3.80104E-001	  3.73428E-001	  3.67199E-001
  4.80000E-002	  3.62310E-001	  3.69535E-001	  3.66222E-001	  3.64673E-001
  5.12000E-002	  3.60901E-001	  3.67761E-001	  3.59075E-001	  3.57541E-001
  5.76000E-002	  3.48435E-001	  3.46077E-001	  3.42561E-001	  3.54204E-001
  6.40000E-002	  3.36057E-001	  3.47089E-001	  3.32686E-001	  3.30057E-001
  7.04000E-002	  3.19078E-001	  3.18460E-001	  3.12593E-001	  3.27357E-001
  7.68000E-002	  3.09376E-001	  3.17540E-001	  3.05955E-001	  3.02944E-001
  8.32000E-002	  2.95395E-001	  3.04697E-001	  2.92323E-001	  2.98472E-001
  8.96000E-002	  2.87483E-001	  2.96480E-001	  2.86180E-001	  2.84974E-001
  9.60000E-002	  2.75324E-001	  2.94162E-001	  2.77699E-001	  2.77733E-001
  1.02400E-001	  2.67383E-001	  2.78904E-001	  2.67482E-001	  2.73312E-001
  1.15200E-001	  2.45948E-001	  2.55443E-001	  2.50470E-001	  2.50912E-001
  1.28000E-001	  2.27630E-001	  2.45184E-001	  2.34824E-001	  2.34353E-001
  1.40800E-001	  2.17741E-001	  2.33370E-001	  2.19337E-001	  2.19695E-001
  1.53600E-001	  1.99466E-001	  2.16922E-001	  2.04511E-001	  2.05887E-001
  1.66400E-001	  1.81965E-001	  2.05915E-001	  1.88770E-001	  1.93732E-001
  1.79200E-001	  1.73158E-001	  1.91780E-001	  1.74491E-001	  1.78525E-001
  1.92000E-001	  1.59060E-001	  1.81840E-001	  1.67763E-001	  1.67676E-001
  2.04800E-001	  1.50357E-001	  1.72441E-001	  1.63125E-001	  1.55831E-001
  2.30400E-001	  1.39213E-001	  1.53764E-001	  1.45660E-001	  1.39445E-001
  2.56000E-001	  1.19699E-001	  1.44808E-001	  1.34058E-001	  1.27919E-001
  2.81600E-001	  1.04792E-001	  1.31741E-001	  1.15690E-001	  1.15247E-001
  3.07200E-001	  9.17975E-002	  1.20002E-001	  1.10492E-001	  9.74025E-002
  3.32800E-001	  8.08002E-002	  1.12373E-001	  1.02333E-001	  8.74697E-002
  3.58400E-001	  7.60536E-002	  1.00863E-001	  9.22915E-002	  8.09687E-002
  3.84000E-001	  6.70189E-002	  9.09691E-002	  8.56357E-002	  7.09013E-002
  4.09600E-001	  5.70903E-002	  8.59075E-002	  7.64449E-002	  6.43849E-002
  4.60800E-001	  4.97379E-002	  7.99109E-002	  6.48458E-002	  5.13861E-002
  5.12000E-001	  4.02066E-002	  6.88851E-002	  5.97726E-002	  4.34449E-002
  5.63200E-001	  3.27675E-002	  5.94312E-002	  5.09537E-002	  3.29378E-002
  6.14400E-001	  2.29974E-002	  5.42748E-002	  4.58945E-002	  2.78575E-002
  6.65600E-001	  1.75225E-002	  4.76715E-002	  4.14030E-002	  2.71697E-002
  7.16800E-001	  1.41097E-002	  3.85928E-002	  3.15512E-002	  2.85061E-002
  7.68000E-001	  9.68619E-003	  3.52356E-002	  2.77865E-002	  2.24613E-002
  8.19200E-001	  7.48318E-003	  2.63547E-002	  2.44811E-002	  2.06318E-002
  9.21600E-001	  4.06187E-003	  1.52945E-002	  2.28795E-002	  1.27400E-002
  1.02400E+000	  1.98248E-003	  7.53183E-003	  2.01052E-002	  9.62036E-003
  1.12640E+000	 -5.37700E-004	  6.71407E-003	  1.90237E-002	  6.82734E-003
  1.22880E+000	  6.25705E-004	  3.24808E-003	  1.51311E-002	  9.78244E-003
  1.33120E+000	  5.34666E-003	  1.45455E-003	  1.35553E-002	  1.22865E-002
  1.43360E+000	  1.72536E-003	 -1.75445E-003	  1.34995E-002	  8.68989E-003
  1.53600E+000	  2.14094E-003	  2.34667E-003	  1.38073E-002	  1.49361E-002
  1.63840E+000	  3.46657E-003	  1.25230E-003	  1.09558E-002	  1.91540E-002
  1.84320E+000	  1.21051E-003	 -1.25829E-003	  5.17950E-003	  1.82915E-002
  2.04800E+000	 -2.57523E-003	 -2.95306E-003	  1.76389E-003	  1.27372E-002
  2.25280E+000	 -2.28662E-003	 -1.04169E-002	 -3.66874E-003	 -1.12979E-003
  2.45760E+000	 -8.49414E-004	 -6.77518E-003	  4.36044E-003	 -5.33443E-003
  2.66240E+000	  9.57386E-003	 -1.87490E-002	  2.31463E-003	 -6.86369E-003
  2.86720E+000	  1.03140E-002	 -1.67006E-002	 -7.71701E-003	 -4.57912E-003
  3.07200E+000	  7.84037E-003	 -1.71037E-002	 -7.16176E-003	 -4.63941E-003
  3.27680E+000	  5.07941E-003	 -1.73785E-002	  7.97049E-004	 -5.86505E-003
  3.68640E+000	  4.95287E-003	 -1.37446E-002	  2.95286E-003	 -6.17740E-003
  4.09600E+000	  1.18685E-002	 -1.07130E-002	 -4.60771E-004	 -6.38433E-003
  4.50560E+000	  7.85076E-003	 -5.00292E-003	 -8.61453E-003	 -1.34000E-002
  4.91520E+000	  9.06138E-003	  2.47578E-003	 -1.67718E-002	 -5.64721E-003
  5.32480E+000	  7.88592E-003	  3.35878E-003	 -2.79902E-003	 -3.11653E-003
  5.73440E+000	 -2.02694E-003	 -2.03544E-003	 -8.90998E-005	 -5.11599E-004
  6.14400E+000	  2.56806E-003	 -1.68568E-003	 -1.24987E-002	 -1.00119E-002
  6.55360E+000	  7.36080E-003	 -2.03747E-003	 -6.82826E-003	 -3.88968E-003
  7.37280E+000	  8.58267E-003	 -7.08386E-003	  4.94925E-003	  2.96904E-003
  8.19200E+000	  6.18528E-004	 -1.17424E-002	  4.73980E-003	 -3.21518E-004
  9.01120E+000	 -8.34601E-003	 -2.38765E-003	  2.55032E-003	  5.49925E-003
  9.83040E+000	  4.04182E-003	 -2.93148E-003	  4.59408E-003	 -2.12863E-003
  1.06496E+001	 -1.12972E-003	 -4.69691E-004	 -5.11121E-003	  2.82452E-003
  1.14688E+001	 -1.96672E-003	  2.84795E-003	  1.16277E-003	  6.44984E-003
  1.22880E+001	  5.56771E-003	 -6.58099E-003	  1.04202E-003	 -5.91616E-005
  1.31072E+001	  2.78185E-003	 -6.31273E-003	  2.15989E-003	  7.76608E-004
  1.47456E+001	 -1.87853E-003	 -2.04577E-003	  2.86922E-003	 -5.23253E-003
  1.63840E+001	 -4.68255E-003	  3.60423E-003	 -4.69607E-003	 -6.21593E-003
  1.80224E+001	  3.39915E-003	  1.26649E-003	 -5.20477E-003	  3.71618E-003
  1.96608E+001	 -8.53183E-003	  1.99595E-004	  7.20503E-005	 -9.54097E-004
  2.12992E+001	 -2.02926E-003	 -6.99757E-003	  2.92533E-003	 -1.06695E-003
  2.29376E+001	  2.98844E-003	 -1.16728E-004	 -1.12892E-004	  3.30794E-004
  2.45760E+001	 -4.16921E-003	  3.12452E-003	 -1.87345E-003	  1.03332E-003
  2.62144E+001	 -1.21461E-003	  1.84868E-003	  8.44653E-004	  3.37556E-004
  2.94912E+001	  1.54361E-003	 -1.35483E-003	 -2.39637E-003	 -1.56769E-003
  3.27680E+001	  2.00660E-003	  1.58418E-003	  1.03618E-003	  2.85598E-003
  3.60448E+001	  1.13546E-003	  1.43672E-003	 -5.32900E-003	  3.90859E-003
  3.93216E+001	  2.99202E-003	  5.29124E-003	  3.76124E-003	  1.26761E-003
  4.25984E+001	  5.68403E-003	 -4.34621E-003	 -1.29679E-003	 -8.66423E-003
  4.58752E+001	  6.24594E-003	  2.53977E-003	 -7.29369E-004	 -8.62676E-004
  4.91520E+001	  6.00924E-003	 -9.63291E-004	 -1.65418E-003	 -5.73680E-003
  5.24288E+001	  1.94230E-003	 -7.43455E-004	  3.37607E-003	 -2.23499E-003
  5.89824E+001	  5.45963E-004	  6.80233E-004	  9.69029E-004	  2.04152E-004
  6.55360E+001	 -1.59572E-003	  1.64309E-003	 -4.34857E-004	  3.63133E-003
  7.20896E+001	 -3.16394E-003	  3.10449E-003	 -1.83851E-003	 -4.53849E-003
  7.86432E+001	 -4.30769E-003	 -1.15710E-003	 -1.89862E-003	  3.79178E-004
  8.51968E+001	 -1.34286E-003	  4.00414E-003	 -2.35263E-003	 -3.29007E-003
  9.17504E+001	 -3.74370E-003	 -2.00245E-003	  2.93262E-004	 -1.21274E-003
  9.83040E+001	 -1.41178E-003	 -1.39355E-003	 -1.08596E-003	 -2.74644E-003
  1.04858E+002	  1.19012E-003	  4.65512E-004	  1.76527E-004	  1.36597E-003
  1.17965E+002	 -1.74984E-003	 -2.64852E-003	 -9.54969E-004	 -8.99572E-005
  1.31072E+002	 -5.12422E-003	  2.96042E-003	 -1.34705E-004	  1.28062E-004
  1.44179E+002	  3.49324E-003	 -1.24084E-003	 -1.81579E-003	  5.87843E-004
  1.57286E+002	  7.48316E-004	 -4.46358E-004	  1.30829E-003	  2.64058E-003
  1.70394E+002	 -3.35143E-003	 -3.05204E-005	 -3.07057E-003	 -4.76794E-004
  1.83501E+002	 -3.05941E-003	 -2.08934E-003	 -9.34278E-004	 -3.32714E-004
  1.96608E+002	  3.58267E-003	  8.74983E-004	  7.61668E-004	 -1.24283E-003
  2.09715E+002	 -7.02576E-004	  3.86997E-004	  7.53532E-004	 -2.20836E-003
  2.35930E+002	 -1.99004E-003	 -2.44202E-005	 -7.57415E-005	 -5.91572E-004
  2.62144E+002	  3.18426E-003	 -5.85828E-004	 -2.91945E-005	  1.37289E-003
  2.88358E+002	  3.74018E-003	  1.29472E-003	  1.83378E-003	 -8.03311E-004
  3.14573E+002	  2.85516E-003	  1.56006E-003	  2.44130E-003	  1.17334E-003
  3.40787E+002	 -2.19991E-003	 -1.09229E-003	  5.55018E-004	 -4.83111E-004
  3.67002E+002	 -3.45712E-003	  9.71523E-004	 -3.46078E-003	 -6.13312E-004
  3.93216E+002	 -3.42418E-003	  1.28358E-004	 -1.28393E-003	 -1.89542E-003

"Count Rate"
       0.01311	     135.26917	     147.39990	      95.52002	     123.67249
       0.02621	     110.16846	     126.34277	     118.56079	     113.06763
       0.03932	     115.66162	     132.21741	     122.98584	      98.49548
       0.05243	     112.68616	     107.87964	      90.25574	     109.78699
       0.06554	     104.21753	     112.53357	     106.88782	     141.90674
       0.07864	     144.65332	     116.34827	     125.27466	     114.44092
       0.09175	     103.68347	     112.91504	     135.42175	     127.25830
       0.10486	     119.32373	     116.50085	     111.77063	     125.65613
       0.11796	     161.36169	     112.60986	     112.07581	     111.99951
       0.13107	     129.77600	     114.51721	     120.84961	     126.41907
       0.14418	     125.88501	     154.03748	     104.52271	     101.16577
       0.15729	     171.43250	     125.50354	     146.10291	      90.02686
       0.17039	     135.11658	     119.24744	     112.68616	     109.55811
       0.18350	     145.87402	     128.17383	      84.76257	     114.28833
       0.19661	     121.23108	     108.79517	     110.01587	      99.56360
       0.20972	     125.65613	     128.70789	     133.74329	     125.19836
       0.22282	     123.29102	     124.89319	     106.04858	     138.16833
       0.23593	     100.32654	     128.70789	     106.12488	     127.63977
       0.24904	     119.17114	     120.69702	     101.39465	     115.89050
       0.26214	     129.47083	      99.86877	     128.32642	     106.35376
       0.27525	     122.60437	     130.69153	     112.83875	     115.89050
       0.28836	     103.53088	     126.34277	     112.07581	     123.59619
       0.30147	     115.20386	     105.36194	     122.37549	     117.18750
       0.31457	     118.71338	     127.48718	     100.25024	     133.20923
       0.32768	     123.59619	      97.96143	      99.63989	     107.87964
       0.34079	      88.88245	     121.61255	     118.25562	     124.58801
       0.35389	     109.55811	     119.85779	     146.02661	      98.26660
       0.36700	     125.35095	     104.59900	     138.54980	      98.19031
       0.38011	     138.85498	     123.44360	     116.57715	     118.56079
       0.39322	     107.49817	     139.92310	     129.16565	     117.18750
       0.40632	     112.83875	     113.75427	     109.63440	     113.14392
       0.41943	     136.18469	     117.18750	     111.38916	     114.28833
       0.43254	     159.53064	      95.90149	     103.30200	     106.43005
       0.44564	     113.83057	     149.38354	      90.86609	     134.12476
       0.45875	     121.53625	     103.14941	     113.75427	     118.17932
       0.47186	     140.60974	     137.25281	      96.96960	     120.62073
       0.48497	      85.06775	     111.23657	     130.99670	     106.88782
       0.49807	     125.80872	     105.81970	     103.68347	     119.62891
       0.51118	      92.08679	     147.17102	     118.17932	     124.89319
       0.52429	     121.68884	     102.23389	     104.59900	      89.34021
       0.53740	     110.85510	     129.39453	     116.88232	     141.83044
       0.55050	     102.99683	     125.88501	     112.07581	     121.53625
       0.56361	     136.41357	      90.94238	      96.28296	     147.70508
       0.57672	     120.16296	     109.55811	     137.10022	     113.44910
       0.58982	     123.21472	     129.31824	     150.52795	     116.42456
       0.60293	      96.43555	     109.78699	     107.04041	     106.04858
       0.61604	     138.54980	     104.14124	     107.42188	     131.53076
       0.62915	     120.23926	     117.56897	     116.80603	      98.80066
       0.64225	     110.47363	      98.34290	     131.91223	     111.99951
       0.65536	     116.04309	     101.16577	     110.01587	     128.63159
       0.66847	     118.25562	     107.42188	     145.26367	     103.75977
       0.68157	     110.85510	     122.37549	     125.19836	     129.92859
       0.69468	     122.45178	     114.97498	     128.63159	     156.78406
       0.70779	     111.16028	     115.12756	     126.11389	     128.93677
       0.72090	     139.54163	     111.54175	     102.69165	     143.89038
       0.73400	     139.00757	     123.44360	     113.44910	     111.38916
       0.74711	      96.05408	      93.23120	     129.31824	     129.77600
       0.76022	     137.10022	     140.07568	      96.66443	     130.61523
       0.77332	     145.18738	     109.78699	     100.40283	     104.67529
       0.78643	      99.63989	     103.45459	     119.47632	      98.87695
       0.79954	     109.17664	     105.66711	     124.43542	     117.64526
       0.81265	     135.19287	     144.50073	     119.17114	     115.12756
       0.82575	     122.60437	     128.47900	     129.92859	     130.99670
       0.83886	     114.59351	      98.95325	     128.78418	     107.49817
       0.85197	     108.64258	     144.80591	     114.28833	     121.07849
       0.86508	     119.17114	     120.54443	     166.93115	      90.33203
       0.87818	     130.15747	     117.34009	      93.30750	     124.13025
       0.89129	     120.62073	     108.71887	     127.10571	     120.16296
       0.90440	     106.96411	     138.85498	     129.24194	     124.43542
       0.91750	     114.89868	     132.90405	      95.06226	     104.21753
       0.93061	     115.73792	     120.69702	     132.75146	     150.75684

Monitor Diode	      1.00
