ALV-7004/USB-FAST
Date :	"3/14/2024"
Time :	"12:36:05 PM"
Samplename : 	""
SampMemo(0) : 	""
SampMemo(1) : 	""
SampMemo(2) : 	""
SampMemo(3) : 	""
SampMemo(4) : 	""
SampMemo(5) : 	""
SampMemo(6) : 	""
SampMemo(7) : 	""
SampMemo(8) : 	""
SampMemo(9) : 	""
Temperature [K] :	     298.16000
Viscosity [cp]  :	       0.89000
Refractive Index:	       1.33200
Wavelength [nm] :	       0.00000
Angle [°]       :	       0.00000
Duration [s]    :	         1
FloatDur [ms]   :	          944
Stop TP [ms]   :	      3945
Runs            :	         1
Mode            :	"A-CH0+1  A-CH2+3 "
MeanCR0 [kHz]   :	     134.64080
MeanCR1 [kHz]   :	     123.96177
MeanCR2 [kHz]   :	     121.83189
MeanCR3 [kHz]   :	     124.62616

"Correlation"
  3.12500E-006	 -1.00000E+000	 -1.00000E+000	 -1.00000E+000	 -1.00000E+000
  6.25000E-006	 -1.00000E+000	 -1.00000E+000	 -1.00000E+000	 -1.00000E+000
  9.37500E-006	 -1.00000E+000	 -1.00000E+000	 -1.00000E+000	 -1.00000E+000
  1.25000E-005	 -1.00000E+000	 -1.00000E+000	 -1.00000E+000	 -1.00000E+000
  1.56250E-005	 -1.00000E+000	 -1.00000E+000	 -1.00000E+000	 -1.00000E+000
  1.87500E-005	 -1.00000E+000	 -1.00000E+000	 -1.00000E+000	 -1.00000E+000
  2.18750E-005	 -9.25181E-001	 -4.04206E-001	 -4.06038E-001	 -9.34505E-001
  2.50000E-005	  5.92079E+000	  5.59786E+000	  5.46505E+000	  1.01997E+001
  2.81250E-005	  1.52515E+000	  1.33904E+000	  1.35300E+000	  4.54527E+000
  3.12500E-005	  7.58256E-001	  5.88783E-001	  8.27576E-001	  2.31843E+000
  3.43750E-005	  7.20846E-001	  6.32916E-001	  6.67663E-001	  1.77264E+000
  3.75000E-005	  9.64009E-001	  4.56384E-001	  5.99129E-001	  2.05645E+000
  4.06250E-005	  1.03883E+000	  7.21181E-001	  8.04732E-001	  1.72897E+000
  4.37500E-005	  3.65454E-001	  4.56384E-001	  6.44819E-001	  1.83813E+000
  4.68750E-005	  6.46027E-001	  5.00517E-001	  7.13353E-001	  1.72897E+000
  5.00000E-005	  6.17969E-001	  7.32214E-001	  8.04732E-001	  1.24867E+000
  5.62500E-005	  5.71207E-001	  6.77048E-001	  3.24993E-001	  1.29234E+000
  6.25000E-005	  5.99264E-001	  5.44650E-001	  4.04949E-001	  9.53944E-001
  6.87500E-005	  3.56101E-001	  6.43949E-001	  7.36197E-001	  9.86692E-001
  7.50000E-005	  3.84159E-001	  7.43248E-001	  4.50639E-001	  6.04636E-001
  8.12500E-005	  7.58256E-001	  5.99816E-001	  3.47837E-001	  7.13794E-001
  8.75000E-005	  6.64731E-001	  4.78451E-001	  7.36197E-001	  5.82804E-001
  9.37500E-005	  6.08617E-001	  4.89484E-001	  4.96328E-001	  6.81047E-001
  1.00000E-004	  3.93511E-001	  5.61199E-001	  5.24884E-001	  5.50056E-001
  1.12500E-004	  6.97465E-001	  4.95000E-001	  3.64971E-001	  6.59215E-001
  1.25000E-004	  4.07540E-001	  6.88081E-001	  4.33505E-001	  5.17308E-001
  1.37500E-004	  4.68330E-001	  6.16366E-001	  4.10660E-001	  7.02878E-001
  1.50000E-004	  6.31998E-001	  5.66716E-001	  5.47728E-001	  5.82804E-001
  1.62500E-004	  4.26244E-001	  3.95701E-001	  5.53440E-001	  5.77346E-001
  1.75000E-004	  5.99264E-001	  4.89484E-001	  5.47728E-001	  6.59215E-001
  1.87500E-004	  5.57178E-001	  5.39133E-001	  4.84906E-001	  4.68187E-001
  2.00000E-004	  5.36135E-001	  4.95000E-001	  4.82050E-001	  5.33682E-001
  2.25000E-004	  4.77682E-001	  4.03976E-001	  5.27739E-001	  5.71887E-001
  2.50000E-004	  3.95849E-001	  5.94299E-001	  5.24883E-001	  7.24710E-001
  2.75000E-004	  5.71207E-001	  5.28100E-001	  3.50693E-001	  5.58243E-001
  3.00000E-004	  4.87035E-001	  5.44649E-001	  4.16371E-001	  4.65458E-001
  3.25000E-004	  5.66530E-001	  5.83266E-001	  6.41963E-001	  3.97233E-001
  3.50000E-004	  4.80020E-001	  6.08090E-001	  4.33505E-001	  3.99962E-001
  3.75000E-004	  5.15092E-001	  4.17767E-001	  3.96382E-001	  3.94504E-001
  4.00000E-004	  5.86404E-001	  5.32236E-001	  5.57722E-001	  5.03663E-001
  4.50000E-004	  4.35596E-001	  5.07412E-001	  4.54921E-001	  5.11849E-001
  5.00000E-004	  4.87034E-001	  4.77070E-001	  4.96327E-001	  4.72279E-001
  5.50000E-004	  4.27413E-001	  4.89483E-001	  4.87760E-001	  4.90018E-001
  6.00000E-004	  4.78851E-001	  4.68795E-001	  4.66343E-001	  3.98597E-001
  6.50000E-004	  4.64822E-001	  4.60520E-001	  5.49155E-001	  4.59999E-001
  7.00000E-004	  5.60684E-001	  4.93620E-001	  5.40588E-001	  5.63700E-001
  7.50000E-004	  4.78851E-001	  5.76369E-001	  5.13460E-001	  5.50055E-001
  8.00000E-004	  4.71835E-001	  5.10858E-001	  4.76337E-001	  4.73643E-001
  9.00000E-004	  5.10414E-001	  5.20512E-001	  4.38500E-001	  5.32315E-001
  1.00000E-003	  4.74758E-001	  5.22581E-001	  4.57061E-001	  5.26857E-001
  1.10000E-003	  4.36179E-001	  5.66714E-001	  5.22740E-001	  5.33680E-001
  1.20000E-003	  4.74758E-001	  4.31557E-001	  5.44157E-001	  4.96839E-001
  1.30000E-003	  4.30334E-001	  5.23271E-001	  5.04892E-001	  5.08437E-001
  1.40000E-003	  5.05153E-001	  4.64657E-001	  4.87045E-001	  5.15942E-001
  1.50000E-003	  4.75342E-001	  4.86033E-001	  4.84903E-001	  5.58923E-001
  1.60000E-003	  4.86446E-001	  4.78446E-001	  4.89924E-001	  4.94790E-001
  1.80000E-003	  5.02813E-001	  4.74308E-001	  4.19247E-001	  5.07411E-001
  2.00000E-003	  5.49867E-001	  4.72584E-001	  4.64580E-001	  4.85238E-001
  2.20000E-003	  5.06320E-001	  4.95340E-001	  4.25315E-001	  4.81827E-001
  2.40000E-003	  4.85861E-001	  5.05684E-001	  4.51016E-001	  5.28915E-001
  2.60000E-003	  4.93168E-001	  4.90858E-001	  4.66722E-001	  4.79452E-001
  2.80000E-003	  5.00182E-001	  4.46380E-001	  5.26333E-001	  5.44606E-001
  3.00000E-003	  4.80601E-001	  4.38795E-001	  4.27814E-001	  4.48068E-001
  3.20000E-003	  4.73874E-001	  4.53641E-001	  4.56059E-001	  4.85075E-001
  3.60000E-003	  4.54146E-001	  4.89154E-001	  4.93540E-001	  5.05201E-001
  4.00000E-003	  4.68467E-001	  4.91568E-001	  4.48741E-001	  4.83540E-001
  4.40000E-003	  4.75627E-001	  4.83293E-001	  4.66934E-001	  5.04690E-001
  4.80000E-003	  4.86295E-001	  5.13117E-001	  4.98690E-001	  4.97185E-001
  5.20000E-003	  4.76650E-001	  4.86051E-001	  4.96549E-001	  5.03837E-001
  5.60000E-003	  4.79865E-001	  4.76570E-001	  4.58176E-001	  4.93944E-001
  6.00000E-003	  4.82495E-001	  4.65881E-001	  4.82449E-001	  5.02472E-001
  6.40000E-003	  4.71452E-001	  4.76782E-001	  4.77429E-001	  4.74077E-001
  7.20000E-003	  4.79270E-001	  4.80218E-001	  4.73324E-001	  5.03840E-001
  8.00000E-003	  4.70576E-001	  4.99712E-001	  4.82707E-001	  4.64111E-001
  8.80000E-003	  4.78551E-001	  4.96510E-001	  4.68071E-001	  4.84579E-001
  9.60000E-003	  4.78332E-001	  4.78839E-001	  4.60830E-001	  4.69740E-001
  1.04000E-002	  4.83155E-001	  4.76339E-001	  4.62615E-001	  5.12210E-001
  1.12000E-002	  4.77455E-001	  4.71081E-001	  4.58573E-001	  4.87320E-001
  1.20000E-002	  4.69199E-001	  4.82631E-001	  4.50988E-001	  4.69496E-001
  1.28000E-002	  4.76132E-001	  4.81290E-001	  4.55288E-001	  4.70567E-001
  1.44000E-002	  4.62249E-001	  4.61494E-001	  4.54829E-001	  4.87240E-001
  1.60000E-002	  4.64113E-001	  4.82916E-001	  4.54906E-001	  4.69118E-001
  1.76000E-002	  4.72308E-001	  4.61322E-001	  4.47887E-001	  4.81697E-001
  1.92000E-002	  4.50849E-001	  4.80187E-001	  4.27315E-001	  4.73113E-001
  2.08000E-002	  4.58375E-001	  4.64098E-001	  4.51636E-001	  4.73284E-001
  2.24000E-002	  4.60590E-001	  4.68180E-001	  4.44840E-001	  4.70470E-001
  2.40000E-002	  4.67714E-001	  4.42665E-001	  4.36470E-001	  4.61600E-001
  2.56000E-002	  4.54223E-001	  4.53783E-001	  4.41455E-001	  4.56902E-001
  2.88000E-002	  4.38726E-001	  4.49184E-001	  4.39084E-001	  4.53844E-001
  3.20000E-002	  4.52463E-001	  4.39310E-001	  4.40860E-001	  4.59738E-001
  3.52000E-002	  4.48207E-001	  4.47555E-001	  4.36237E-001	  4.47222E-001
  3.84000E-002	  4.37646E-001	  4.37703E-001	  4.26917E-001	  4.47670E-001
  4.16000E-002	  4.36495E-001	  4.29341E-001	  4.30239E-001	  4.30869E-001
  4.48000E-002	  4.27859E-001	  4.35797E-001	  4.14718E-001	  4.32755E-001
  4.80000E-002	  4.34567E-001	  4.26570E-001	  4.20373E-001	  4.33032E-001
  5.12000E-002	  4.24856E-001	  4.23780E-001	  4.12855E-001	  4.20898E-001
  5.76000E-002	  4.09859E-001	  4.19264E-001	  4.08380E-001	  4.16578E-001
  6.40000E-002	  3.98037E-001	  4.12507E-001	  3.93913E-001	  4.11369E-001
  7.04000E-002	  3.96550E-001	  4.00116E-001	  3.96076E-001	  3.97085E-001
  7.68000E-002	  3.91385E-001	  3.95774E-001	  3.71901E-001	  3.92286E-001
  8.32000E-002	  3.78108E-001	  3.93899E-001	  3.67133E-001	  3.84259E-001
  8.96000E-002	  3.70990E-001	  3.79102E-001	  3.62676E-001	  3.82170E-001
  9.60000E-002	  3.65724E-001	  3.66804E-001	  3.54182E-001	  3.70549E-001
  1.02400E-001	  3.59003E-001	  3.60556E-001	  3.48226E-001	  3.62786E-001
  1.15200E-001	  3.41679E-001	  3.48491E-001	  3.25740E-001	  3.47660E-001
  1.28000E-001	  3.31652E-001	  3.34313E-001	  3.18470E-001	  3.29750E-001
  1.40800E-001	  3.10212E-001	  3.16261E-001	  3.01032E-001	  3.25849E-001
  1.53600E-001	  3.01289E-001	  3.05985E-001	  2.85536E-001	  3.07171E-001
  1.66400E-001	  2.89102E-001	  2.91204E-001	  2.80898E-001	  2.93626E-001
  1.79200E-001	  2.71738E-001	  2.69314E-001	  2.54231E-001	  2.83408E-001
  1.92000E-001	  2.63043E-001	  2.62804E-001	  2.50918E-001	  2.71319E-001
  2.04800E-001	  2.52559E-001	  2.51518E-001	  2.41399E-001	  2.60621E-001
  2.30400E-001	  2.33709E-001	  2.32245E-001	  2.15534E-001	  2.39834E-001
  2.56000E-001	  2.12085E-001	  2.07745E-001	  1.95264E-001	  2.22566E-001
  2.81600E-001	  1.95215E-001	  1.91038E-001	  1.79575E-001	  1.99942E-001
  3.07200E-001	  1.79240E-001	  1.73559E-001	  1.65200E-001	  1.90088E-001
  3.32800E-001	  1.60843E-001	  1.55007E-001	  1.49727E-001	  1.69751E-001
  3.58400E-001	  1.51389E-001	  1.40557E-001	  1.35791E-001	  1.56670E-001
  3.84000E-001	  1.40758E-001	  1.27359E-001	  1.21833E-001	  1.48457E-001
  4.09600E-001	  1.29921E-001	  1.16946E-001	  1.12154E-001	  1.38130E-001
  4.60800E-001	  1.17889E-001	  9.19249E-002	  9.20388E-002	  1.21754E-001
  5.12000E-001	  1.04584E-001	  7.14146E-002	  7.79974E-002	  1.04339E-001
  5.63200E-001	  9.80503E-002	  6.08671E-002	  6.63405E-002	  8.82659E-002
  6.14400E-001	  8.78316E-002	  4.92634E-002	  5.69245E-002	  7.83041E-002
  6.65600E-001	  8.33592E-002	  4.52536E-002	  4.85180E-002	  6.44087E-002
  7.16800E-001	  7.44506E-002	  3.82148E-002	  3.95169E-002	  5.60781E-002
  7.68000E-001	  6.80183E-002	  3.03162E-002	  3.02061E-002	  4.78437E-002
  8.19200E-001	  6.43490E-002	  2.92660E-002	  2.31793E-002	  4.42518E-002
  9.21600E-001	  4.75788E-002	  2.87909E-002	  1.34397E-002	  3.93508E-002
  1.02400E+000	  3.66618E-002	  3.01291E-002	  3.88042E-003	  3.11352E-002
  1.12640E+000	  2.92244E-002	  2.93187E-002	 -4.79553E-003	  1.96650E-002
  1.22880E+000	  2.05732E-002	  2.81978E-002	 -4.48403E-003	  1.08416E-002
  1.33120E+000	  2.02528E-002	  3.05549E-002	 -1.44403E-003	  8.87971E-003
  1.43360E+000	  2.35245E-002	  2.70933E-002	 -4.54413E-003	  9.94095E-003
  1.53600E+000	  2.79184E-002	  2.80540E-002	 -4.00058E-003	  9.01820E-003
  1.63840E+000	  2.34313E-002	  2.24721E-002	 -1.13757E-003	  4.69494E-003
  1.84320E+000	  1.69597E-002	  1.69891E-002	  6.05114E-003	  2.89276E-003
  2.04800E+000	  7.77032E-003	  1.98531E-002	  7.81278E-003	  4.63616E-003
  2.25280E+000	  2.42252E-003	  1.26518E-002	  9.61934E-003	  4.32291E-003
  2.45760E+000	  1.64472E-003	  5.78397E-003	  7.90485E-003	 -1.57424E-003
  2.66240E+000	 -3.33045E-004	  4.51756E-003	  1.81697E-003	  6.11119E-004
  2.86720E+000	  2.88420E-003	  8.44078E-003	 -1.30220E-003	  9.69991E-004
  3.07200E+000	  4.29326E-003	  1.42575E-002	 -7.14554E-003	 -3.08681E-003
  3.27680E+000	  6.46562E-003	  6.77754E-003	  2.89393E-003	 -3.11253E-003
  3.68640E+000	  4.10602E-003	  5.68204E-003	  1.12139E-002	 -3.35864E-003
  4.09600E+000	  1.46061E-003	 -6.68393E-004	  4.98698E-003	 -6.71299E-003
  4.50560E+000	 -2.74036E-003	  4.38000E-003	 -1.28610E-003	 -4.76206E-003
  4.91520E+000	 -9.51974E-003	  1.59358E-002	 -3.93851E-003	 -1.66606E-003
  5.32480E+000	 -4.18397E-003	  7.27897E-003	 -1.72987E-003	  6.49219E-003
  5.73440E+000	  4.60214E-003	 -3.61726E-003	  1.68021E-003	  1.07201E-002
  6.14400E+000	  1.23897E-002	 -7.06370E-003	  4.39018E-003	  6.43452E-003
  6.55360E+000	  1.73927E-002	 -3.88082E-003	  5.10076E-003	  1.28875E-003
  7.37280E+000	  2.26131E-002	  6.96538E-004	 -2.59225E-003	  3.27897E-003
  8.19200E+000	  1.66288E-002	 -5.85046E-003	  5.89036E-003	 -3.01599E-003
  9.01120E+000	  1.01563E-002	 -1.41866E-002	  8.93180E-003	 -9.68553E-003
  9.83040E+000	  1.00905E-003	  1.33330E-003	 -6.51503E-003	 -3.99351E-003
  1.06496E+001	 -1.77795E-002	  2.90478E-003	 -1.61284E-002	  1.83007E-003
  1.14688E+001	 -1.97197E-002	 -6.44892E-003	  1.37520E-002	 -1.69792E-003
  1.22880E+001	 -9.75935E-003	 -1.26175E-003	  2.07674E-002	 -1.63518E-002
  1.31072E+001	 -2.33126E-003	 -2.94907E-003	  1.33539E-002	 -1.64461E-002
  1.47456E+001	 -3.68555E-003	  1.25870E-002	 -2.35202E-003	 -3.27398E-003
  1.63840E+001	  1.21482E-003	  5.75456E-003	  1.36145E-003	  4.38313E-005
  1.80224E+001	 -2.00476E-004	  1.10443E-003	  5.45596E-003	  2.08592E-003
  1.96608E+001	  1.03119E-004	  3.70182E-003	 -2.47973E-003	  6.43518E-004
  2.12992E+001	  5.32889E-003	 -9.26331E-003	  6.95079E-003	 -1.38158E-002
  2.29376E+001	  3.55801E-003	 -7.82140E-003	 -1.93693E-004	 -1.40144E-002
  2.45760E+001	  6.37911E-005	  3.42308E-004	  9.93106E-003	 -5.55141E-003
  2.62144E+001	 -6.23900E-003	 -1.49403E-003	  2.78292E-003	 -3.30452E-003
  2.94912E+001	  2.38434E-003	  4.64667E-003	  1.63646E-003	 -5.38574E-003
  3.27680E+001	  2.34603E-003	 -5.77060E-003	 -4.48575E-003	 -5.27483E-003
  3.60448E+001	  3.62816E-003	  1.41736E-003	 -7.37518E-004	 -6.32188E-003
  3.93216E+001	 -5.19218E-003	 -3.24067E-003	 -2.46936E-003	 -7.90345E-003
  4.25984E+001	  1.52211E-003	  7.65745E-003	 -1.39436E-003	 -7.61576E-005
  4.58752E+001	 -5.67064E-003	  5.86988E-003	 -4.84193E-003	 -4.85595E-003
  4.91520E+001	 -5.04208E-003	  8.58571E-004	  2.77221E-003	  1.38077E-002
  5.24288E+001	 -1.13941E-002	 -3.38227E-003	 -4.26370E-003	  9.55519E-003
  5.89824E+001	 -5.24232E-003	  2.70159E-003	  3.44530E-003	  4.72495E-003
  6.55360E+001	 -1.17015E-003	 -7.33486E-003	 -4.63192E-003	  1.80255E-003
  7.20896E+001	 -4.25209E-003	 -8.82599E-003	  1.66604E-003	 -1.63281E-003
  7.86432E+001	  1.80469E-003	 -2.39200E-003	 -2.61218E-003	 -5.35800E-003
  8.51968E+001	  1.53069E-003	 -2.62443E-004	 -4.78606E-003	 -1.11050E-002
  9.17504E+001	 -8.21837E-005	 -1.82227E-003	 -2.30055E-003	 -3.99063E-003
  9.83040E+001	  1.69047E-003	 -8.25776E-003	  9.09386E-004	  7.21916E-003
  1.04858E+002	  1.83021E-003	 -3.45583E-005	  5.89461E-003	 -1.68809E-003
  1.17965E+002	  3.38287E-004	 -6.22561E-003	  3.46417E-003	  3.37710E-003
  1.31072E+002	 -3.50178E-003	 -4.75800E-003	  8.68806E-004	 -9.12587E-004
  1.44179E+002	  5.47689E-003	  1.59756E-003	 -2.14565E-003	 -5.85829E-003
  1.57286E+002	 -3.78540E-003	  3.23835E-003	 -4.53831E-003	  8.18595E-004
  1.70394E+002	  1.06241E-003	  7.96380E-004	  5.20947E-004	  2.75015E-003
  1.83501E+002	 -1.95106E-003	 -3.69433E-003	  3.80062E-003	  2.95952E-003
  1.96608E+002	 -3.26223E-003	  1.22856E-002	 -5.24890E-003	 -3.21430E-003
  2.09715E+002	 -3.19174E-003	  5.21900E-003	 -1.25117E-003	 -2.53877E-003
  2.35930E+002	  3.73446E-003	  3.34123E-003	  2.22477E-003	  7.30035E-003
  2.62144E+002	  5.42550E-003	  3.33758E-003	  1.35815E-003	 -6.39926E-003
  2.88358E+002	 -1.67199E-003	 -4.31746E-004	  3.96176E-003	  3.77111E-003
  3.14573E+002	 -4.39716E-003	 -3.78934E-003	 -2.88683E-004	 -2.93644E-004
  3.40787E+002	 -4.24744E-003	 -1.62952E-003	 -3.40482E-003	  5.18607E-004
  3.67002E+002	  4.68514E-004	 -9.80544E-003	 -3.06396E-003	 -2.83489E-003
  3.93216E+002	 -7.66403E-004	  2.10603E-003	 -7.37879E-004	 -2.63525E-003

"Count Rate"
       0.01311	     139.99939	     128.47900	     109.63440	      91.55273
       0.02621	     163.87939	     149.76501	      95.82520	     114.89868
       0.03932	     125.88501	     131.14929	      77.05688	     129.31824
       0.05243	     105.81970	     142.51709	     102.76794	     114.66980
       0.06554	     104.67529	     112.83875	     134.81140	     125.27466
       0.07864	     118.56079	     142.44080	      96.05408	     101.01318
       0.09175	     129.62341	      98.19031	     114.51721	     162.96387
       0.10486	     149.45984	      98.80066	     118.25562	     135.57434
       0.11796	     150.75684	     116.72974	     133.13293	     116.95862
       0.13107	     121.38367	     110.93140	     113.29651	     130.46265
       0.14418	     135.49805	     117.72156	     129.08936	     105.81970
       0.15729	      99.63989	     142.59338	     126.95313	     120.54443
       0.17039	     146.02661	      95.06226	     125.65613	     111.84692
       0.18350	     107.87964	     120.46814	     123.82507	     120.77332
       0.19661	     125.12207	     134.42993	     123.59619	     132.75146
       0.20972	     192.87109	     128.17383	     129.39453	     175.17090
       0.22282	     145.49255	     134.96399	     106.81152	      93.84155
       0.23593	     116.65344	     132.21741	     129.62341	     118.40820
       0.24904	     166.09192	     162.12463	     106.12488	      99.86877
       0.26214	     105.51453	     129.39453	      96.96960	     140.07568
       0.27525	     117.95044	      95.36743	     114.82239	     125.96130
       0.28836	     145.49255	      94.22302	     107.72705	      97.57996
       0.30147	     112.45728	     123.13843	     122.75696	     112.99133
       0.31457	     184.32617	     106.81152	     145.87402	     126.49536
       0.32768	     126.41907	     118.33191	     151.82495	     132.59888
       0.34079	     105.13306	     130.00488	     146.48438	     130.15747
       0.35389	      92.01050	     115.43274	     126.57166	     117.03491
       0.36700	      96.13037	     108.64258	     125.50354	     122.98584
       0.38011	     155.94482	     178.45154	     118.63708	     129.39453
       0.39322	     122.90955	     107.80334	     120.84961	     135.42175
       0.40632	     159.14917	     104.44641	     105.97229	     100.47913
       0.41943	     149.07837	     117.56897	     152.35901	     102.92053
       0.43254	     158.08105	      90.10315	     136.87134	     142.36450
       0.44564	     144.27185	     166.47339	     154.95300	     143.12744
       0.45875	     156.78406	     141.52527	     133.13293	      97.96143
       0.47186	     151.90125	     131.83594	      90.17944	     100.55542
       0.48497	     114.82239	     136.87134	     125.65613	     145.64514
       0.49807	     125.50354	     149.15466	     114.51721	      90.71350
       0.51118	     108.41370	     110.01587	     100.78430	     133.66699
       0.52429	     141.52527	     106.35376	     112.91504	     134.73511
       0.53740	     120.62073	     152.05383	     122.22290	     130.61523
       0.55050	     139.16016	     110.32104	     138.70239	     105.28564
       0.56361	     209.80835	      73.85254	     148.62061	     134.27734
       0.57672	     105.89600	     103.37830	      97.35107	     127.79236
       0.58982	     119.47632	     145.41626	     130.69153	     130.46265
       0.60293	     146.56067	      86.74622	     142.74597	     111.84692
       0.61604	     120.01038	     122.14661	     116.65344	     180.35889
       0.62915	     132.82776	     105.20935	     139.99939	     105.20935
       0.64225	     177.30713	     178.52783	      93.84155	     139.00757
       0.65536	     104.75159	     123.06213	     153.19824	     115.73792
       0.66847	     152.28271	     120.62073	     129.69971	     105.51453
       0.68157	     148.84949	     114.51721	     114.59351	     152.74048
       0.69468	     160.67505	     155.56335	     106.12488	      91.17126
       0.70779	     171.89026	     108.10852	     117.34009	      96.96960
       0.72090	     123.59619	     133.20923	     131.14929	     107.42188
       0.73400	     126.03760	     112.38098	     149.30725	     143.43262
       0.74711	     101.77612	     126.95313	     119.55261	     108.94775
       0.76022	     153.35083	      74.99695	     113.67798	     108.03223
       0.77332	     122.37549	      79.80347	     103.45459	     127.79236
       0.78643	     145.95032	     118.33191	     115.96680	     115.20386
       0.79954	     121.53625	     114.13574	      99.79248	     181.12183
       0.81265	     142.21191	     130.23376	     133.89587	      93.46008
       0.82575	     112.15210	     123.44360	      92.01050	      92.84973
       0.83886	     123.36731	     117.95044	     151.82495	     141.98303
       0.85197	      98.49548	     133.66699	     110.32104	     169.37256
       0.86508	     126.19019	     102.53906	     102.53906	     123.21472
       0.87818	     115.58533	     140.45715	      98.03772	      97.04590
       0.89129	     127.33459	     128.47900	     103.45459	     115.73792
       0.90440	      93.23120	     109.32922	     107.65076	     128.63159
       0.91750	     138.77869	     146.17920	     105.13306	     137.48169
       0.93061	     139.92310	     106.27747	     112.30469	     134.35364

Monitor Diode	      1.00
