ALV-7004/USB-FAST
Date :	"3/14/2024"
Time :	"12:34:38 PM"
Samplename : 	""
SampMemo(0) : 	""
SampMemo(1) : 	""
SampMemo(2) : 	""
SampMemo(3) : 	""
SampMemo(4) : 	""
SampMemo(5) : 	""
SampMemo(6) : 	""
SampMemo(7) : 	""
SampMemo(8) : 	""
SampMemo(9) : 	""
Temperature [K] :	     298.16000
Viscosity [cp]  :	       0.89000
Refractive Index:	       1.33200
Wavelength [nm] :	       0.00000
Angle [°]       :	       0.00000
Duration [s]    :	         1
FloatDur [ms]   :	          944
Stop TP [ms]   :	      3599
Runs            :	         1
Mode            :	"A-CH0+1  A-CH2+3 "
MeanCR0 [kHz]   :	     109.00498
MeanCR1 [kHz]   :	     110.48953
MeanCR2 [kHz]   :	     100.68894
MeanCR3 [kHz]   :	      99.27114

"Correlation"
  3.12500E-006	 -1.00000E+000	 -1.00000E+000	 -1.00000E+000	 -1.00000E+000
  6.25000E-006	 -1.00000E+000	 -1.00000E+000	 -1.00000E+000	 -1.00000E+000
  9.37500E-006	 -1.00000E+000	 -1.00000E+000	 -1.00000E+000	 -1.00000E+000
  1.25000E-005	 -1.00000E+000	 -1.00000E+000	 -1.00000E+000	 -1.00000E+000
  1.56250E-005	 -1.00000E+000	 -1.00000E+000	 -1.00000E+000	 -1.00000E+000
  1.87500E-005	 -1.00000E+000	 -1.00000E+000	 -1.00000E+000	 -1.00000E+000
  2.18750E-005	 -9.42926E-001	 -1.94504E-001	 -3.64526E-001	 -1.00000E+000
  2.50000E-005	  6.19136E+000	  6.77720E+000	  5.75609E+000	  1.24536E+001
  2.81250E-005	  1.79664E+000	  1.38871E+000	  1.60879E+000	  5.53755E+000
  3.12500E-005	  8.54915E-001	  8.05422E-001	  6.38853E-001	  2.81931E+000
  3.43750E-005	  1.02614E+000	  7.22095E-001	  9.73313E-001	  2.47522E+000
  3.75000E-005	  1.08321E+000	  7.77646E-001	  8.39529E-001	  2.47522E+000
  4.06250E-005	  7.40766E-001	  3.61010E-001	  5.05069E-001	  1.95910E+000
  4.37500E-005	  8.83452E-001	  7.22095E-001	  6.72299E-001	  1.82147E+000
  4.68750E-005	  1.11175E+000	  6.66543E-001	  9.06421E-001	  1.99351E+000
  5.00000E-005	  1.06894E+000	  7.22094E-001	  5.88684E-001	  1.85588E+000
  5.62500E-005	  9.69064E-001	  5.83216E-001	  6.22130E-001	  1.08169E+000
  6.25000E-005	  5.41006E-001	  6.52655E-001	  5.05069E-001	  1.23653E+000
  6.87500E-005	  4.26858E-001	  4.16562E-001	  4.54900E-001	  1.28814E+000
  7.50000E-005	  6.12349E-001	  4.99889E-001	  6.22130E-001	  7.54816E-001
  8.12500E-005	  6.83692E-001	  2.36019E-001	  1.03718E-001	  7.20408E-001
  8.75000E-005	  2.84172E-001	  4.72113E-001	  7.55914E-001	  9.61265E-001
  9.37500E-005	  4.69663E-001	  5.83216E-001	  2.70948E-001	  7.54816E-001
  1.00000E-004	  5.05335E-001	  4.79057E-001	  3.29478E-001	  6.86000E-001
  1.12500E-004	  4.83932E-001	  6.24879E-001	  4.79985E-001	  5.82775E-001
  1.25000E-004	  5.26738E-001	  5.34608E-001	  4.63262E-001	  4.88153E-001
  1.37500E-004	  6.40886E-001	  3.81842E-001	  4.46539E-001	  6.08582E-001
  1.50000E-004	  5.62409E-001	  6.04047E-001	  4.46539E-001	  5.74173E-001
  1.62500E-004	  4.26858E-001	  6.04047E-001	  5.05069E-001	  4.88153E-001
  1.75000E-004	  4.69663E-001	  4.65169E-001	  3.88008E-001	  4.27939E-001
  1.87500E-004	  5.19603E-001	  6.45711E-001	  4.96708E-001	  5.65571E-001
  2.00000E-004	  5.23170E-001	  5.41552E-001	  4.88346E-001	  5.56969E-001
  2.25000E-004	  4.94633E-001	  5.65856E-001	  6.05407E-001	  4.62347E-001
  2.50000E-004	  4.83932E-001	  5.97103E-001	  4.54900E-001	  5.35464E-001
  2.75000E-004	  5.69543E-001	  4.68641E-001	  5.38515E-001	  3.93530E-001
  3.00000E-004	  5.58842E-001	  5.69328E-001	  5.76142E-001	  5.26862E-001
  3.25000E-004	  4.51827E-001	  6.87374E-001	  4.63261E-001	  4.32239E-001
  3.50000E-004	  3.69783E-001	  6.87374E-001	  6.22130E-001	  4.10734E-001
  3.75000E-004	  5.62409E-001	  4.44337E-001	  4.92527E-001	  4.53744E-001
  4.00000E-004	  4.71446E-001	  5.72799E-001	  4.90436E-001	  5.05356E-001
  4.50000E-004	  4.78580E-001	  5.69327E-001	  4.84165E-001	  4.90303E-001
  5.00000E-004	  5.83811E-001	  4.84264E-001	  5.71960E-001	  4.55894E-001
  5.50000E-004	  5.71326E-001	  4.68640E-001	  4.02640E-001	  4.27938E-001
  6.00000E-004	  4.92849E-001	  5.79743E-001	  3.88007E-001	  4.96754E-001
  6.50000E-004	  5.26737E-001	  4.44336E-001	  4.67442E-001	  5.89226E-001
  7.00000E-004	  5.42789E-001	  5.62383E-001	  4.88345E-001	  4.45142E-001
  7.50000E-004	  4.98199E-001	  4.75584E-001	  5.23882E-001	  5.05356E-001
  8.00000E-004	  4.99105E-001	  5.19850E-001	  4.65350E-001	  5.29010E-001
  9.00000E-004	  5.15157E-001	  4.72111E-001	  3.80690E-001	  4.10733E-001
  1.00000E-003	  5.00888E-001	  4.59091E-001	  4.07865E-001	  5.33311E-001
  1.10000E-003	  4.66986E-001	  5.37210E-001	  4.66395E-001	  3.35465E-001
  1.20000E-003	  4.35773E-001	  4.81659E-001	  4.01594E-001	  3.75249E-001
  1.30000E-003	  5.27627E-001	  4.96414E-001	  4.31904E-001	  4.54818E-001
  1.40000E-003	  4.70553E-001	  5.33738E-001	  4.67440E-001	  4.53743E-001
  1.50000E-003	  5.04441E-001	  4.45203E-001	  4.30859E-001	  4.25786E-001
  1.60000E-003	  4.82158E-001	  4.86430E-001	  4.61689E-001	  4.58579E-001
  1.80000E-003	  5.34328E-001	  5.26357E-001	  4.56986E-001	  4.33310E-001
  2.00000E-003	  5.05790E-001	  4.58220E-001	  4.29811E-001	  4.66106E-001
  2.20000E-003	  4.59863E-001	  4.63428E-001	  4.43399E-001	  4.54815E-001
  2.40000E-003	  5.35220E-001	  4.51710E-001	  4.72141E-001	  4.37611E-001
  2.60000E-003	  4.62984E-001	  4.76882E-001	  4.69006E-001	  4.46751E-001
  2.80000E-003	  4.69213E-001	  5.07262E-001	  4.52283E-001	  4.67718E-001
  3.00000E-003	  4.53606E-001	  5.15074E-001	  4.66393E-001	  4.42988E-001
  3.20000E-003	  4.71006E-001	  4.99011E-001	  4.81282E-001	  4.37607E-001
  3.60000E-003	  4.67215E-001	  4.57781E-001	  4.85724E-001	  4.76047E-001
  4.00000E-003	  4.85497E-001	  4.90982E-001	  4.63252E-001	  4.40832E-001
  4.40000E-003	  5.14257E-001	  4.52139E-001	  4.59071E-001	  4.50509E-001
  4.80000E-003	  4.65655E-001	  4.85137E-001	  4.21706E-001	  4.71477E-001
  5.20000E-003	  4.78140E-001	  4.89043E-001	  4.39736E-001	  4.66369E-001
  5.60000E-003	  4.96867E-001	  4.54540E-001	  4.39736E-001	  4.63681E-001
  6.00000E-003	  5.24498E-001	  4.92515E-001	  4.33203E-001	  4.46477E-001
  6.40000E-003	  4.73448E-001	  4.71999E-001	  4.35691E-001	  4.62327E-001
  7.20000E-003	  4.73337E-001	  4.85561E-001	  4.64956E-001	  4.36522E-001
  8.00000E-003	  4.63750E-001	  4.77207E-001	  4.48233E-001	  4.59505E-001
  8.80000E-003	  4.84930E-001	  4.82306E-001	  4.43922E-001	  4.27920E-001
  9.60000E-003	  4.69992E-001	  4.67008E-001	  4.17400E-001	  4.50096E-001
  1.04000E-002	  4.73671E-001	  4.95326E-001	  4.53198E-001	  4.25232E-001
  1.12000E-002	  4.67651E-001	  4.65814E-001	  4.26415E-001	  4.70123E-001
  1.20000E-002	  4.82700E-001	  4.72324E-001	  4.32947E-001	  4.42167E-001
  1.28000E-002	  4.84408E-001	  4.66283E-001	  4.30657E-001	  4.37712E-001
  1.44000E-002	  4.71422E-001	  4.67964E-001	  4.40912E-001	  4.42566E-001
  1.60000E-002	  4.59048E-001	  4.68507E-001	  4.42415E-001	  4.08830E-001
  1.76000E-002	  4.64622E-001	  4.79248E-001	  4.23275E-001	  4.31089E-001
  1.92000E-002	  4.68356E-001	  4.60966E-001	  4.12416E-001	  4.34046E-001
  2.08000E-002	  4.55258E-001	  4.74312E-001	  4.50630E-001	  4.27341E-001
  2.24000E-002	  4.63744E-001	  4.56369E-001	  4.19537E-001	  4.23779E-001
  2.40000E-002	  4.65249E-001	  4.66785E-001	  4.19275E-001	  4.34196E-001
  2.56000E-002	  4.57839E-001	  4.68916E-001	  4.12028E-001	  4.27788E-001
  2.88000E-002	  4.63998E-001	  4.55422E-001	  4.21663E-001	  4.22091E-001
  3.20000E-002	  4.53074E-001	  4.56889E-001	  4.20618E-001	  4.25149E-001
  3.52000E-002	  4.57003E-001	  4.44167E-001	  4.07618E-001	  4.12343E-001
  3.84000E-002	  4.51318E-001	  4.52630E-001	  4.06900E-001	  4.12175E-001
  4.16000E-002	  4.51374E-001	  4.45184E-001	  4.04940E-001	  4.29007E-001
  4.48000E-002	  4.44490E-001	  4.38349E-001	  3.98981E-001	  4.11399E-001
  4.80000E-002	  4.27630E-001	  4.38742E-001	  4.03292E-001	  4.07583E-001
  5.12000E-002	  4.36094E-001	  4.43642E-001	  4.04838E-001	  4.06260E-001
  5.76000E-002	  4.23038E-001	  4.32195E-001	  3.97016E-001	  3.98977E-001
  6.40000E-002	  4.33669E-001	  4.27394E-001	  3.83101E-001	  3.93983E-001
  7.04000E-002	  4.25964E-001	  4.29225E-001	  3.82072E-001	  3.92451E-001
  7.68000E-002	  4.20070E-001	  4.22390E-001	  3.73192E-001	  3.79594E-001
  8.32000E-002	  4.09675E-001	  4.18158E-001	  3.73941E-001	  3.76429E-001
  8.96000E-002	  4.11249E-001	  4.15934E-001	  3.65300E-001	  3.68193E-001
  9.60000E-002	  4.07292E-001	  4.06195E-001	  3.61987E-001	  3.74276E-001
  1.02400E-001	  4.03256E-001	  4.04788E-001	  3.64586E-001	  3.74356E-001
  1.15200E-001	  3.97084E-001	  3.97857E-001	  3.56677E-001	  3.57172E-001
  1.28000E-001	  3.82739E-001	  3.81242E-001	  3.44786E-001	  3.47139E-001
  1.40800E-001	  3.76929E-001	  3.82509E-001	  3.40913E-001	  3.42584E-001
  1.53600E-001	  3.69991E-001	  3.67012E-001	  3.33218E-001	  3.31127E-001
  1.66400E-001	  3.55494E-001	  3.67208E-001	  3.14818E-001	  3.22993E-001
  1.79200E-001	  3.53593E-001	  3.56512E-001	  3.11273E-001	  3.14613E-001
  1.92000E-001	  3.42118E-001	  3.48711E-001	  2.96577E-001	  3.05247E-001
  2.04800E-001	  3.36707E-001	  3.43422E-001	  2.93363E-001	  3.00520E-001
  2.30400E-001	  3.21902E-001	  3.26977E-001	  2.75486E-001	  2.82860E-001
  2.56000E-001	  3.01495E-001	  3.11728E-001	  2.63793E-001	  2.69669E-001
  2.81600E-001	  2.90886E-001	  3.01899E-001	  2.41194E-001	  2.58240E-001
  3.07200E-001	  2.74318E-001	  2.91197E-001	  2.40417E-001	  2.43742E-001
  3.32800E-001	  2.65446E-001	  2.73653E-001	  2.19949E-001	  2.31358E-001
  3.58400E-001	  2.51520E-001	  2.62823E-001	  2.07917E-001	  2.19696E-001
  3.84000E-001	  2.38043E-001	  2.47226E-001	  1.92842E-001	  2.09868E-001
  4.09600E-001	  2.26257E-001	  2.35487E-001	  1.80731E-001	  1.98795E-001
  4.60800E-001	  1.99975E-001	  2.10436E-001	  1.62897E-001	  1.80998E-001
  5.12000E-001	  1.79496E-001	  1.90112E-001	  1.40487E-001	  1.65405E-001
  5.63200E-001	  1.62643E-001	  1.76368E-001	  1.19566E-001	  1.47710E-001
  6.14400E-001	  1.43276E-001	  1.56097E-001	  1.04636E-001	  1.30447E-001
  6.65600E-001	  1.28125E-001	  1.40352E-001	  9.34869E-002	  1.20845E-001
  7.16800E-001	  1.15869E-001	  1.25845E-001	  8.50099E-002	  1.12096E-001
  7.68000E-001	  1.02626E-001	  1.12584E-001	  7.82454E-002	  9.77501E-002
  8.19200E-001	  9.50680E-002	  1.01461E-001	  6.85997E-002	  8.87670E-002
  9.21600E-001	  8.38491E-002	  8.32708E-002	  5.29966E-002	  7.18003E-002
  1.02400E+000	  7.28925E-002	  6.84759E-002	  4.30406E-002	  5.68212E-002
  1.12640E+000	  6.20165E-002	  5.38640E-002	  3.20460E-002	  4.42472E-002
  1.22880E+000	  5.38181E-002	  4.01441E-002	  2.70278E-002	  3.48289E-002
  1.33120E+000	  5.10652E-002	  2.73787E-002	  2.39625E-002	  2.96482E-002
  1.43360E+000	  4.28175E-002	  1.48009E-002	  2.24725E-002	  2.28684E-002
  1.53600E+000	  3.68350E-002	  8.12248E-003	  2.16664E-002	  1.74273E-002
  1.63840E+000	  3.18643E-002	  1.70619E-003	  2.20719E-002	  1.22112E-002
  1.84320E+000	  1.96896E-002	 -6.59869E-003	  2.23908E-002	  6.75534E-003
  2.04800E+000	  1.56455E-002	 -1.08949E-002	  1.84693E-002	  5.34491E-003
  2.25280E+000	  1.04727E-002	 -1.33537E-002	  1.08181E-002	  5.70705E-003
  2.45760E+000	  8.10862E-003	 -1.78625E-002	  6.83107E-003	  4.11359E-003
  2.66240E+000	  4.90385E-003	 -1.86244E-002	  4.29483E-003	  1.13687E-002
  2.86720E+000	  7.07786E-003	 -1.59137E-002	  4.88646E-003	  7.31734E-003
  3.07200E+000	  4.82839E-003	 -9.44496E-003	  4.71665E-003	  4.32668E-003
  3.27680E+000	  7.72598E-003	 -4.26194E-003	  8.33127E-003	 -7.02425E-005
  3.68640E+000	  1.17120E-002	 -4.16783E-003	  5.69516E-003	 -5.86173E-003
  4.09600E+000	  1.41630E-002	 -8.81248E-003	  3.75813E-003	 -1.97824E-002
  4.50560E+000	  7.05124E-004	 -7.65465E-003	  5.77606E-003	 -1.87851E-002
  4.91520E+000	 -7.72041E-003	 -6.81737E-003	  1.94845E-003	 -1.37103E-002
  5.32480E+000	 -1.01819E-002	  4.36846E-004	  3.36406E-003	 -1.22455E-002
  5.73440E+000	 -1.78762E-002	  2.03809E-003	  5.07103E-003	 -1.04736E-002
  6.14400E+000	 -1.30912E-002	  9.22823E-004	  4.15929E-003	 -1.39531E-002
  6.55360E+000	 -5.70423E-003	 -5.53504E-003	  5.34711E-003	 -1.65970E-002
  7.37280E+000	  3.53051E-003	 -1.32614E-002	  5.59648E-003	  8.77636E-004
  8.19200E+000	 -6.78333E-003	  4.92201E-003	  2.09435E-003	  2.45580E-003
  9.01120E+000	  1.01795E-003	  1.47640E-002	  7.72236E-003	 -9.89224E-003
  9.83040E+000	  9.02999E-004	  1.27711E-002	  1.28231E-002	 -1.96702E-002
  1.06496E+001	 -1.56887E-003	  6.98059E-003	  4.56710E-003	 -6.04879E-003
  1.14688E+001	 -4.63320E-003	  1.54961E-003	 -2.11454E-003	  3.28105E-003
  1.22880E+001	  3.23339E-003	  3.84475E-003	 -6.54544E-003	  4.40864E-003
  1.31072E+001	 -3.43317E-003	  2.31319E-003	 -1.44834E-002	 -3.65455E-003
  1.47456E+001	 -3.80576E-003	  9.16385E-004	 -1.25793E-002	 -1.42735E-003
  1.63840E+001	  4.08330E-003	 -1.35693E-002	 -9.25853E-004	  6.77631E-003
  1.80224E+001	  1.64635E-002	 -1.60615E-002	  6.70100E-003	  1.39499E-002
  1.96608E+001	 -1.16814E-002	 -2.04132E-002	 -3.92556E-004	 -1.33907E-003
  2.12992E+001	 -4.70081E-003	  5.67597E-003	  1.05184E-002	  3.22325E-003
  2.29376E+001	 -7.30127E-004	 -1.66184E-003	  3.20281E-003	 -2.01340E-002
  2.45760E+001	  7.94359E-003	  2.35361E-003	  7.79525E-003	 -1.47640E-002
  2.62144E+001	  7.57907E-003	  5.44784E-003	  8.75266E-003	 -8.12183E-003
  2.94912E+001	 -8.86969E-003	 -3.58477E-003	  9.71672E-005	 -7.12766E-003
  3.27680E+001	 -1.05566E-003	 -8.38719E-003	  9.06099E-003	 -3.85598E-003
  3.60448E+001	 -1.81926E-002	  5.10938E-003	  4.13005E-003	  1.27885E-003
  3.93216E+001	 -4.85361E-003	  3.38324E-003	 -2.98299E-003	  7.54761E-003
  4.25984E+001	 -9.06442E-003	 -5.74251E-003	  1.63376E-003	 -2.64296E-003
  4.58752E+001	  1.23501E-003	 -1.30549E-002	 -1.42159E-002	  6.32181E-003
  4.91520E+001	  1.23946E-003	 -3.02419E-003	 -1.84452E-003	 -8.57015E-003
  5.24288E+001	 -2.18642E-003	 -2.69342E-003	 -2.86626E-003	  3.92428E-003
  5.89824E+001	 -7.35782E-003	  9.87192E-004	  3.06004E-004	 -1.07952E-003
  6.55360E+001	 -2.05326E-003	 -3.48032E-003	 -6.25896E-003	 -8.85752E-003
  7.20896E+001	  5.66320E-003	  3.10218E-003	  8.60138E-004	  2.35015E-003
  7.86432E+001	  1.13070E-002	 -5.11346E-003	  3.12628E-003	  8.02798E-004
  8.51968E+001	 -3.71479E-003	 -7.61683E-003	 -8.76428E-003	  2.05626E-003
  9.17504E+001	 -4.39460E-003	 -3.76538E-004	 -4.91302E-004	  1.06760E-003
  9.83040E+001	  7.62953E-003	 -8.96771E-003	  1.11885E-002	 -2.68208E-003
  1.04858E+002	 -3.70884E-003	 -2.05889E-003	  3.20365E-003	  5.00327E-004
  1.17965E+002	  3.70173E-004	 -6.37440E-003	 -8.20721E-003	 -1.29092E-003
  1.31072E+002	  6.12655E-004	 -5.34901E-003	 -1.60596E-004	  6.18728E-003
  1.44179E+002	 -6.38389E-004	 -3.48612E-003	 -1.05748E-003	 -5.38494E-003
  1.57286E+002	 -3.12740E-003	 -1.22647E-003	  3.29886E-003	 -9.76504E-003
  1.70394E+002	 -7.33975E-003	  6.64677E-003	  7.34568E-003	  3.88156E-003
  1.83501E+002	  3.54070E-003	  2.91454E-003	 -4.72694E-003	  5.77897E-003
  1.96608E+002	  7.78315E-003	  5.86863E-003	  1.44362E-003	  4.37460E-004
  2.09715E+002	  6.49459E-003	  6.21005E-003	 -2.51205E-003	 -1.95670E-003
  2.35930E+002	 -4.98707E-003	  1.38250E-003	 -1.94341E-003	 -4.31741E-003
  2.62144E+002	 -6.97460E-004	 -2.28299E-003	  4.80025E-003	  3.45208E-003
  2.88358E+002	  4.25998E-003	 -1.74347E-003	  1.50452E-003	  3.75638E-004
  3.14573E+002	 -2.53508E-003	 -1.55539E-003	  2.63747E-003	  1.80935E-003
  3.40787E+002	 -3.56288E-003	 -1.35398E-003	 -8.69093E-003	 -3.94156E-003
  3.67002E+002	 -7.17765E-003	 -1.97535E-003	 -8.38312E-003	  5.21945E-003
  3.93216E+002	 -3.24598E-003	  2.32400E-003	 -3.71162E-003	 -2.21505E-003

"Count Rate"
       0.01311	     102.61536	     112.99133	     106.35376	     107.42188
       0.02621	     126.11389	      97.12219	      88.27209	     143.05115
       0.03932	     145.95032	      92.23938	     112.83875	     112.07581
       0.05243	     128.86047	     113.29651	      94.60449	      83.46558
       0.06554	      87.96692	     119.78149	     160.52246	      90.86609
       0.07864	      96.20667	     140.91492	     108.64258	      68.89343
       0.09175	     112.22839	      81.02417	     147.93396	     128.63159
       0.10486	      89.11133	      89.34021	     118.17932	     117.95044
       0.11796	      94.14673	     113.75427	      90.63721	      91.55273
       0.13107	     103.83606	      91.93420	     103.07312	      94.45190
       0.14418	      88.04321	     107.19299	      70.41931	     110.47363
       0.15729	      88.27209	     139.38904	     120.69702	      81.55823
       0.17039	     121.45996	     105.43823	     100.93689	      99.56360
       0.18350	     106.73523	     147.47620	     122.52808	      93.53638
       0.19661	     125.73242	     123.13843	      81.17676	      95.52002
       0.20972	      84.38110	     117.49268	      94.29932	      75.22583
       0.22282	     106.65894	     111.08398	      99.63989	     133.43811
       0.23593	     108.71887	     109.86328	     124.81689	      84.53369
       0.24904	     112.60986	      96.58813	      79.42200	      78.43018
       0.26214	     102.53906	      90.48462	     123.82507	      88.57727
       0.27525	     115.43274	     111.61804	      78.50647	     112.45728
       0.28836	     135.49805	      97.50366	      83.46558	      78.81165
       0.30147	     129.77600	      90.40833	      72.70813	      92.23938
       0.31457	     189.74304	      83.69446	      83.92334	     110.24475
       0.32768	      93.99414	     125.65613	     103.60718	      98.11401
       0.34079	      87.96692	      96.05408	      82.09229	     119.01855
       0.35389	      76.21765	     104.37012	      91.17126	      97.12219
       0.36700	      79.49829	     112.60986	     112.38098	      90.56091
       0.38011	     138.16833	     164.41345	     121.45996	      90.40833
       0.39322	      90.02686	     111.99951	     125.88501	     109.10034
       0.40632	     120.92590	      94.45190	      79.42200	      92.39197
       0.41943	      91.85791	     121.76514	     103.14941	      97.65625
       0.43254	     113.75427	     132.14111	      83.23669	      84.99146
       0.44564	      95.90149	      88.80615	      78.50647	      96.81702
       0.45875	     141.52527	      98.49548	      94.83337	     121.45996
       0.47186	     109.86328	      93.15491	      95.29114	      79.57458
       0.48497	     122.45178	     100.17395	     107.26929	      87.73804
       0.49807	     116.57715	     121.53625	      98.80066	     104.59900
       0.51118	     150.75684	      92.08679	      86.66992	      89.49280
       0.52429	      77.20947	      93.00232	      72.02148	      94.83337
       0.53740	      96.66443	     101.39465	     100.78430	      90.17944
       0.55050	      84.83887	     100.78430	      87.43286	      94.60449
       0.56361	      81.55823	     106.35376	      90.10315	      84.60999
       0.57672	     121.91772	     102.92053	      99.18213	      85.29663
       0.58982	     137.55798	     102.00500	      95.82520	     140.45715
       0.60293	      85.06775	     143.81409	     104.29382	     103.07312
       0.61604	     106.73523	     106.43005	      89.03503	      70.72449
       0.62915	      85.22034	     114.13574	      78.96423	     103.14941
       0.64225	      92.23938	     116.80603	     113.83057	     111.46545
       0.65536	     103.60718	      77.66724	     146.10291	      95.13855
       0.66847	     102.53906	      92.54456	     104.44641	     104.29382
       0.68157	     100.93689	     105.89600	     108.79517	      97.12219
       0.69468	     100.63171	     117.79785	      85.60181	     126.80054
       0.70779	      94.45190	     105.89600	     125.12207	      76.82800
       0.72090	     117.41638	     106.12488	      80.33752	     108.41370
       0.73400	     117.34009	     124.13025	      92.46826	      96.28296
       0.74711	     109.40552	      65.30762	     114.82239	      89.72168
       0.76022	      88.57727	     104.44641	      78.04871	     124.05396
       0.77332	     115.28015	     118.25562	      71.10596	     133.97217
       0.78643	     112.15210	     123.90137	     108.33740	      91.62903
       0.79954	     103.91235	     121.68884	      81.48193	      97.27478
       0.81265	     106.81152	      98.03772	      97.73254	      84.99146
       0.82575	      94.75708	      87.05139	     103.07312	      82.62634
       0.83886	      93.30750	      94.60449	     110.70251	      79.65088
       0.85197	      94.37561	     104.52271	     102.00500	      72.55554
       0.86508	     116.34827	     158.38623	      93.53638	     116.04309
       0.87818	      96.81702	     124.66431	      93.38379	      97.96143
       0.89129	      88.80615	      93.53638	      86.82251	      80.10864
       0.90440	     132.52258	     103.45459	     111.23657	      82.55005
       0.91750	     109.93958	     105.28564	      94.14673	      97.35107
       0.93061	     131.14929	     114.28833	     103.53088	      97.57996

Monitor Diode	      1.00
