ALV-7004/USB-FAST
Date :	"3/14/2024"
Time :	"12:34:09 PM"
Samplename : 	""
SampMemo(0) : 	""
SampMemo(1) : 	""
SampMemo(2) : 	""
SampMemo(3) : 	""
SampMemo(4) : 	""
SampMemo(5) : 	""
SampMemo(6) : 	""
SampMemo(7) : 	""
SampMemo(8) : 	""
SampMemo(9) : 	""
Temperature [K] :	     298.16000
Viscosity [cp]  :	       0.89000
Refractive Index:	       1.33200
Wavelength [nm] :	       0.00000
Angle [°]       :	       0.00000
Duration [s]    :	         1
FloatDur [ms]   :	          944
Stop TP [ms]   :	      3432
Runs            :	         1
Mode            :	"A-CH0+1  A-CH2+3 "
MeanCR0 [kHz]   :	     119.88216
MeanCR1 [kHz]   :	     109.74142
MeanCR2 [kHz]   :	     108.39145
MeanCR3 [kHz]   :	     109.78169

"Correlation"
  3.12500E-006	 -1.00000E+000	 -1.00000E+000	 -1.00000E+000	 -1.00000E+000
  6.25000E-006	 -1.00000E+000	 -1.00000E+000	 -1.00000E+000	 -1.00000E+000
  9.37500E-006	 -1.00000E+000	 -1.00000E+000	 -1.00000E+000	 -1.00000E+000
  1.25000E-005	 -1.00000E+000	 -1.00000E+000	 -1.00000E+000	 -1.00000E+000
  1.56250E-005	 -1.00000E+000	 -1.00000E+000	 -1.00000E+000	 -1.00000E+000
  1.87500E-005	 -1.00000E+000	 -1.00000E+000	 -1.00000E+000	 -1.00000E+000
  2.18750E-005	 -9.76406E-001	 -3.24263E-001	 -2.78465E-001	 -9.71865E-001
  2.50000E-005	  6.05455E+000	  6.91175E+000	  6.18649E+000	  1.13232E+001
  2.81250E-005	  1.83126E+000	  1.13983E+000	  1.30891E+000	  4.99277E+000
  3.12500E-005	  9.81882E-001	  9.99055E-001	  6.45100E-001	  2.43248E+000
  3.43750E-005	  8.40319E-001	  6.89342E-001	  1.04916E+000	  2.09486E+000
  3.75000E-005	  6.51568E-001	  6.04875E-001	  7.31685E-001	  2.17926E+000
  4.06250E-005	  9.11100E-001	  5.20408E-001	  8.75992E-001	  1.53215E+000
  4.37500E-005	  3.21254E-001	  6.33031E-001	  4.14209E-001	  1.72910E+000
  4.68750E-005	  6.98756E-001	  5.20408E-001	  2.98763E-001	  2.01045E+000
  5.00000E-005	  6.63365E-001	  2.24773E-001	  4.57501E-001	  1.51809E+000
  5.62500E-005	  6.16177E-001	  7.03420E-001	  3.99778E-001	  1.13826E+000
  6.25000E-005	  6.98756E-001	  5.62641E-001	  8.18269E-001	  8.00643E-001
  6.87500E-005	  4.74614E-001	  4.78174E-001	  3.56486E-001	  1.06793E+000
  7.50000E-005	  5.80786E-001	  7.73809E-001	  7.46115E-001	  1.01166E+000
  8.12500E-005	  5.21802E-001	  3.23318E-001	  8.47130E-001	  7.58441E-001
  8.75000E-005	  3.56645E-001	  4.64096E-001	  5.44085E-001	  7.02171E-001
  9.37500E-005	  4.39223E-001	  5.76719E-001	  5.72947E-001	  4.77090E-001
  1.00000E-004	  6.04380E-001	  3.58512E-001	  4.71932E-001	  5.89630E-001
  1.12500E-004	  4.98208E-001	  6.25992E-001	  6.01808E-001	  6.81069E-001
  1.25000E-004	  4.33325E-001	  5.41524E-001	  4.93578E-001	  5.12259E-001
  1.37500E-004	  5.80786E-001	  5.97836E-001	  4.50286E-001	  5.33360E-001
  1.50000E-004	  5.15903E-001	  3.86668E-001	  5.72947E-001	  6.24799E-001
  1.62500E-004	  4.56919E-001	  3.30357E-001	  4.14209E-001	  8.49879E-001
  1.75000E-004	  4.39223E-001	  5.97836E-001	  6.52315E-001	  5.82596E-001
  1.87500E-004	  5.98482E-001	  6.04875E-001	  5.15224E-001	  4.84124E-001
  2.00000E-004	  5.27700E-001	  5.09849E-001	  3.56486E-001	  5.50944E-001
  2.25000E-004	  5.18852E-001	  6.01355E-001	  5.83769E-001	  5.33360E-001
  2.50000E-004	  4.15629E-001	  4.28901E-001	  4.35855E-001	  5.01708E-001
  2.75000E-004	  5.36547E-001	  4.85213E-001	  5.80162E-001	  5.05225E-001
  3.00000E-004	  3.53695E-001	  4.39460E-001	  5.62123E-001	  4.94674E-001
  3.25000E-004	  4.12680E-001	  3.37395E-001	  4.25032E-001	  5.40394E-001
  3.50000E-004	  4.59868E-001	  3.97226E-001	  4.25032E-001	  5.65012E-001
  3.75000E-004	  5.18852E-001	  5.83758E-001	  4.53893E-001	  4.20820E-001
  4.00000E-004	  4.77562E-001	  5.20407E-001	  4.77342E-001	  4.12027E-001
  4.50000E-004	  3.89086E-001	  4.74654E-001	  4.62912E-001	  4.96432E-001
  5.00000E-004	  4.83461E-001	  4.78187E-001	  4.05189E-001	  5.73803E-001
  5.50000E-004	  5.07055E-001	  4.32434E-001	  4.68323E-001	  5.12258E-001
  6.00000E-004	  4.21527E-001	  5.97850E-001	  4.91773E-001	  4.98190E-001
  6.50000E-004	  4.68715E-001	  4.28915E-001	  4.05175E-001	  4.01476E-001
  7.00000E-004	  5.07055E-001	  4.55311E-001	  4.35840E-001	  5.35118E-001
  7.50000E-004	  4.99682E-001	  5.55616E-001	  4.37644E-001	  5.10499E-001
  8.00000E-004	  4.71663E-001	  5.25699E-001	  4.83654E-001	  5.07860E-001
  9.00000E-004	  5.11477E-001	  4.74667E-001	  4.10599E-001	  5.37754E-001
  1.00000E-003	  4.57654E-001	  4.59709E-001	  4.83654E-001	  5.35995E-001
  1.10000E-003	  4.45857E-001	  4.62348E-001	  4.91772E-001	  4.71812E-001
  1.20000E-003	  4.25212E-001	  4.57069E-001	  5.19731E-001	  4.60383E-001
  1.30000E-003	  3.78762E-001	  4.51790E-001	  4.58401E-001	  4.07629E-001
  1.40000E-003	  4.24475E-001	  4.81706E-001	  4.69224E-001	  4.74450E-001
  1.50000E-003	  4.56179E-001	  5.10741E-001	  4.88149E-001	  5.17532E-001
  1.60000E-003	  4.73503E-001	  4.49148E-001	  4.54340E-001	  4.89394E-001
  1.80000E-003	  4.62812E-001	  4.84343E-001	  5.13415E-001	  4.67414E-001
  2.00000E-003	  4.35164E-001	  4.35950E-001	  5.17023E-001	  4.97747E-001
  2.20000E-003	  4.67236E-001	  5.43294E-001	  4.54791E-001	  4.73568E-001
  2.40000E-003	  4.38113E-001	  4.37270E-001	  4.53438E-001	  4.59941E-001
  2.60000E-003	  4.48066E-001	  4.82583E-001	  4.62006E-001	  4.95988E-001
  2.80000E-003	  4.28159E-001	  5.03260E-001	  5.06200E-001	  4.52907E-001
  3.00000E-003	  4.20049E-001	  4.57067E-001	  4.75986E-001	  5.22365E-001
  3.20000E-003	  4.07522E-001	  4.73119E-001	  4.59521E-001	  4.71599E-001
  3.60000E-003	  4.47337E-001	  4.90277E-001	  4.83196E-001	  4.75116E-001
  4.00000E-003	  4.61161E-001	  4.62341E-001	  4.85451E-001	  4.89623E-001
  4.40000E-003	  4.51392E-001	  4.48703E-001	  4.68314E-001	  4.88085E-001
  4.80000E-003	  4.19872E-001	  4.70480E-001	  4.51403E-001	  5.01493E-001
  5.20000E-003	  4.55079E-001	  4.66520E-001	  5.19498E-001	  4.33133E-001
  5.60000E-003	  4.42913E-001	  4.87637E-001	  4.57491E-001	  4.78413E-001
  6.00000E-003	  4.29839E-001	  4.65641E-001	  4.59070E-001	  4.77754E-001
  6.40000E-003	  4.31618E-001	  4.80933E-001	  4.54776E-001	  4.72483E-001
  7.20000E-003	  4.42678E-001	  4.71144E-001	  4.32905E-001	  4.67537E-001
  8.00000E-003	  4.43587E-001	  4.73468E-001	  4.54888E-001	  4.84902E-001
  8.80000E-003	  4.29209E-001	  4.57410E-001	  4.79353E-001	  4.71823E-001
  9.60000E-003	  4.31790E-001	  4.56750E-001	  4.91190E-001	  4.67303E-001
  1.04000E-002	  4.37965E-001	  4.53561E-001	  4.65726E-001	  4.78637E-001
  1.12000E-002	  4.40637E-001	  4.61479E-001	  4.60427E-001	  4.82374E-001
  1.20000E-002	  4.26075E-001	  4.65123E-001	  4.78127E-001	  4.73802E-001
  1.28000E-002	  4.38042E-001	  4.55247E-001	  4.59280E-001	  4.57530E-001
  1.44000E-002	  4.27686E-001	  4.54862E-001	  4.56179E-001	  4.75115E-001
  1.60000E-002	  4.31142E-001	  4.64802E-001	  4.63226E-001	  4.72162E-001
  1.76000E-002	  4.25796E-001	  4.46269E-001	  4.64198E-001	  4.54041E-001
  1.92000E-002	  4.31578E-001	  4.57447E-001	  4.73048E-001	  4.73564E-001
  2.08000E-002	  4.36957E-001	  4.61461E-001	  4.58702E-001	  4.85873E-001
  2.24000E-002	  4.35482E-001	  4.49198E-001	  4.57420E-001	  4.53767E-001
  2.40000E-002	  4.27418E-001	  4.42983E-001	  4.39889E-001	  4.65362E-001
  2.56000E-002	  4.21376E-001	  4.48349E-001	  4.52082E-001	  4.49511E-001
  2.88000E-002	  4.19279E-001	  4.40594E-001	  4.48658E-001	  4.47409E-001
  3.20000E-002	  4.18782E-001	  4.51593E-001	  4.52703E-001	  4.63400E-001
  3.52000E-002	  4.25972E-001	  4.25113E-001	  4.35171E-001	  4.49126E-001
  3.84000E-002	  4.06961E-001	  4.33321E-001	  4.28631E-001	  4.43219E-001
  4.16000E-002	  4.25280E-001	  4.24948E-001	  4.32916E-001	  4.43384E-001
  4.48000E-002	  4.16778E-001	  4.27821E-001	  4.38032E-001	  4.41516E-001
  4.80000E-002	  4.16040E-001	  4.34930E-001	  4.26165E-001	  4.32022E-001
  5.12000E-002	  4.00663E-001	  4.21887E-001	  4.18983E-001	  4.27645E-001
  5.76000E-002	  3.90824E-001	  4.12110E-001	  4.21604E-001	  4.22328E-001
  6.40000E-002	  3.95976E-001	  4.18834E-001	  4.18969E-001	  4.23757E-001
  7.04000E-002	  3.92001E-001	  4.12385E-001	  4.15221E-001	  4.22067E-001
  7.68000E-002	  3.82448E-001	  4.12592E-001	  4.10118E-001	  4.18605E-001
  8.32000E-002	  3.79140E-001	  4.12674E-001	  4.05594E-001	  4.13055E-001
  8.96000E-002	  3.75984E-001	  3.99804E-001	  4.06325E-001	  4.04702E-001
  9.60000E-002	  3.71582E-001	  4.00217E-001	  3.96501E-001	  3.96156E-001
  1.02400E-001	  3.71275E-001	  3.98299E-001	  3.92533E-001	  3.96483E-001
  1.15200E-001	  3.64747E-001	  3.90137E-001	  3.76794E-001	  3.91998E-001
  1.28000E-001	  3.56174E-001	  3.84003E-001	  3.79148E-001	  3.85410E-001
  1.40800E-001	  3.49918E-001	  3.73921E-001	  3.78925E-001	  3.67227E-001
  1.53600E-001	  3.39783E-001	  3.62733E-001	  3.63010E-001	  3.68374E-001
  1.66400E-001	  3.37443E-001	  3.60345E-001	  3.53717E-001	  3.55982E-001
  1.79200E-001	  3.30431E-001	  3.49822E-001	  3.43638E-001	  3.51235E-001
  1.92000E-001	  3.18228E-001	  3.47454E-001	  3.38715E-001	  3.38299E-001
  2.04800E-001	  3.12179E-001	  3.40276E-001	  3.34555E-001	  3.28964E-001
  2.30400E-001	  3.00659E-001	  3.25483E-001	  3.17045E-001	  3.16121E-001
  2.56000E-001	  2.90630E-001	  3.13034E-001	  3.04994E-001	  3.04846E-001
  2.81600E-001	  2.74086E-001	  2.99989E-001	  2.91239E-001	  2.89915E-001
  3.07200E-001	  2.61833E-001	  2.83218E-001	  2.77866E-001	  2.76101E-001
  3.32800E-001	  2.50532E-001	  2.71455E-001	  2.60529E-001	  2.63144E-001
  3.58400E-001	  2.37175E-001	  2.60805E-001	  2.55076E-001	  2.52692E-001
  3.84000E-001	  2.26964E-001	  2.48644E-001	  2.41433E-001	  2.34559E-001
  4.09600E-001	  2.19316E-001	  2.34210E-001	  2.27105E-001	  2.25181E-001
  4.60800E-001	  1.99858E-001	  2.10728E-001	  2.10968E-001	  2.07391E-001
  5.12000E-001	  1.76856E-001	  1.84781E-001	  1.88741E-001	  1.86262E-001
  5.63200E-001	  1.62220E-001	  1.68025E-001	  1.73101E-001	  1.69621E-001
  6.14400E-001	  1.47180E-001	  1.46335E-001	  1.56207E-001	  1.48088E-001
  6.65600E-001	  1.36462E-001	  1.29558E-001	  1.41110E-001	  1.33796E-001
  7.16800E-001	  1.25152E-001	  1.15687E-001	  1.29519E-001	  1.16725E-001
  7.68000E-001	  1.16326E-001	  1.00316E-001	  1.18352E-001	  1.02961E-001
  8.19200E-001	  1.06367E-001	  8.93703E-002	  1.04477E-001	  9.37682E-002
  9.21600E-001	  8.79525E-002	  6.89054E-002	  8.34939E-002	  7.54345E-002
  1.02400E+000	  7.81917E-002	  5.63462E-002	  6.79640E-002	  6.38069E-002
  1.12640E+000	  7.05047E-002	  4.47455E-002	  5.42175E-002	  4.93302E-002
  1.22880E+000	  6.25676E-002	  4.08521E-002	  4.60227E-002	  4.13986E-002
  1.33120E+000	  5.56287E-002	  3.87593E-002	  3.96911E-002	  3.22698E-002
  1.43360E+000	  4.46462E-002	  3.21986E-002	  3.94911E-002	  2.83248E-002
  1.53600E+000	  3.77217E-002	  2.92474E-002	  3.48418E-002	  2.44420E-002
  1.63840E+000	  3.05123E-002	  2.37649E-002	  3.56181E-002	  2.32103E-002
  1.84320E+000	  1.96364E-002	  2.10835E-002	  3.65340E-002	  2.12049E-002
  2.04800E+000	  1.17560E-002	  1.58855E-002	  3.47870E-002	  1.27476E-002
  2.25280E+000	  1.77053E-003	  4.00147E-003	  3.04606E-002	  9.22573E-003
  2.45760E+000	 -1.68749E-003	 -1.96674E-003	  2.04544E-002	  8.72760E-004
  2.66240E+000	 -6.76408E-003	 -6.15908E-003	  9.61328E-003	 -1.22426E-002
  2.86720E+000	 -5.26787E-003	 -5.95870E-003	  3.91957E-003	 -1.41184E-002
  3.07200E+000	 -1.33343E-003	  5.81256E-004	 -6.15318E-003	 -9.73509E-003
  3.27680E+000	  1.76550E-004	  4.24349E-003	 -1.11761E-002	 -8.25724E-003
  3.68640E+000	 -2.67840E-003	  3.23053E-003	 -1.38041E-002	 -4.67094E-003
  4.09600E+000	 -1.32391E-002	  7.50676E-004	 -1.43111E-002	 -6.53457E-003
  4.50560E+000	 -1.45640E-002	  5.22956E-003	 -1.74613E-002	 -1.82520E-002
  4.91520E+000	 -1.40652E-002	  1.93944E-003	 -1.91643E-002	 -2.41907E-002
  5.32480E+000	 -6.92882E-003	 -4.06878E-003	 -1.17652E-002	 -1.69586E-002
  5.73440E+000	  2.45051E-003	 -8.51469E-003	  2.26628E-003	 -1.72216E-002
  6.14400E+000	  8.03324E-003	  6.34929E-004	  3.05212E-003	 -1.96477E-002
  6.55360E+000	  1.74752E-002	  7.12453E-003	 -7.68386E-003	 -1.74608E-002
  7.37280E+000	  2.98516E-002	  2.55764E-003	  4.35360E-003	  1.07561E-002
  8.19200E+000	  2.99529E-002	 -9.57831E-003	  9.17520E-003	  3.06610E-002
  9.01120E+000	  1.61115E-002	 -1.66219E-002	  2.15976E-002	  2.65581E-002
  9.83040E+000	  1.17628E-002	 -3.46318E-003	  6.49431E-003	  7.81724E-003
  1.06496E+001	  1.67860E-002	  4.20743E-003	  1.75825E-003	  4.07595E-003
  1.14688E+001	  1.39801E-003	  7.32218E-003	  7.58074E-003	 -6.50442E-003
  1.22880E+001	 -4.77798E-003	  8.78699E-003	  1.74892E-002	  9.43279E-003
  1.31072E+001	 -9.80665E-005	  1.13269E-004	  1.76642E-002	 -3.38768E-003
  1.47456E+001	  6.46914E-003	 -9.68642E-003	  1.03691E-003	  5.42632E-005
  1.63840E+001	 -2.82456E-003	 -1.48951E-002	 -5.43918E-003	  1.07738E-002
  1.80224E+001	 -9.23768E-003	 -1.62152E-002	 -3.45452E-003	  7.08387E-003
  1.96608E+001	  2.85490E-003	 -1.73554E-002	  7.75425E-003	  1.94467E-003
  2.12992E+001	 -1.05469E-002	  1.43460E-002	  1.75983E-002	  4.02403E-003
  2.29376E+001	 -3.99620E-003	 -4.75665E-003	  3.68669E-003	  8.10059E-003
  2.45760E+001	 -7.25597E-003	  9.50147E-003	 -1.96365E-002	  4.80963E-003
  2.62144E+001	 -1.05963E-002	  7.25771E-004	 -7.71345E-003	  7.35881E-003
  2.94912E+001	  8.57358E-004	 -2.96521E-003	 -8.36517E-003	 -6.34812E-003
  3.27680E+001	 -1.02934E-002	 -6.54089E-003	  1.46667E-002	 -6.03932E-003
  3.60448E+001	 -1.17571E-002	  8.17671E-004	 -8.91902E-003	 -4.95757E-004
  3.93216E+001	 -5.93535E-003	 -8.21564E-003	 -1.20712E-002	  1.20726E-003
  4.25984E+001	 -1.68012E-002	 -4.90094E-003	 -1.17742E-002	 -1.16690E-002
  4.58752E+001	 -8.44876E-003	  3.20477E-003	 -1.69786E-002	  7.63306E-004
  4.91520E+001	 -7.68700E-003	 -5.60130E-003	 -1.50338E-002	 -2.16032E-003
  5.24288E+001	  4.15654E-003	 -5.13576E-003	 -1.24878E-002	 -2.62692E-003
  5.89824E+001	  1.61192E-004	 -9.05521E-003	 -7.62506E-003	  1.56652E-004
  6.55360E+001	 -3.23757E-003	 -6.48686E-003	  4.54422E-004	 -1.32855E-003
  7.20896E+001	  7.92244E-003	  9.03138E-003	 -4.59630E-003	 -1.45215E-002
  7.86432E+001	  1.13199E-002	 -1.06242E-003	  2.27138E-003	 -3.81196E-003
  8.51968E+001	  3.09605E-003	 -3.69719E-003	  5.39422E-003	 -2.33938E-003
  9.17504E+001	  5.61761E-003	 -5.83165E-003	  1.19079E-002	 -2.01526E-002
  9.83040E+001	  1.00550E-003	  8.48617E-003	  1.09884E-002	 -1.42319E-002
  1.04858E+002	  1.48447E-003	  2.60361E-003	  2.83666E-003	 -7.23031E-004
  1.17965E+002	 -1.05830E-002	  1.78615E-003	  7.51783E-003	 -3.01215E-003
  1.31072E+002	 -2.15058E-005	 -1.19868E-002	 -3.43900E-003	  4.58678E-003
  1.44179E+002	  1.58404E-003	  4.90576E-003	 -8.45935E-003	  1.25617E-003
  1.57286E+002	 -3.67412E-003	 -2.16887E-003	 -8.25377E-003	  2.64201E-003
  1.70394E+002	 -5.62603E-005	 -1.99815E-003	 -3.69014E-003	  5.53024E-003
  1.83501E+002	 -1.14889E-003	  7.22977E-003	  2.27597E-003	  2.43956E-003
  1.96608E+002	  7.04651E-004	  2.84979E-003	  4.39120E-003	  1.34811E-003
  2.09715E+002	  9.09971E-003	  3.44057E-004	  5.51447E-003	  5.25293E-004
  2.35930E+002	 -1.13860E-004	 -9.15963E-003	  2.71766E-003	 -3.98462E-003
  2.62144E+002	 -1.00939E-002	  2.18334E-003	 -3.25290E-003	 -1.79891E-004
  2.88358E+002	 -9.56247E-003	  2.94808E-003	 -3.37456E-003	 -1.30617E-003
  3.14573E+002	  8.24740E-003	  6.75560E-003	 -1.08067E-003	  1.84172E-003
  3.40787E+002	 -2.91540E-004	 -7.69552E-003	  1.16579E-003	  1.72474E-003
  3.67002E+002	 -1.05356E-002	 -3.31525E-003	  3.67237E-003	  5.28781E-004
  3.93216E+002	  2.67703E-003	  8.95852E-003	 -4.30489E-003	 -2.82924E-003

"Count Rate"
       0.01311	     125.35095	      95.90149	     132.59888	     122.52808
       0.02621	     142.21191	     111.61804	      73.24219	      75.53101
       0.03932	     107.87964	     118.94226	      85.90698	      84.76257
       0.05243	     100.86060	     101.39465	     108.26111	      92.08679
       0.06554	     122.83325	      64.54468	     147.62878	     131.22559
       0.07864	     129.01306	     148.39172	     100.47913	     116.65344
       0.09175	     157.92847	     106.20117	      82.55005	     121.00220
       0.10486	     156.09741	     102.46277	      95.06226	     106.43005
       0.11796	     124.81689	      96.74072	      92.39197	     104.90417
       0.13107	     102.15759	     132.82776	      71.10596	     167.61780
       0.14418	      92.77344	      98.80066	     108.48999	     108.10852
       0.15729	     133.05664	     135.57434	      75.91248	      91.55273
       0.17039	     176.92566	     102.08130	     102.15759	      84.83887
       0.18350	     146.56067	     131.68335	     116.34827	     128.17383
       0.19661	     122.45178	     101.92871	     106.35376	     114.97498
       0.20972	      98.19031	      95.44373	     104.75159	     111.31287
       0.22282	      93.76526	     121.99402	      71.79260	     131.37817
       0.23593	     114.21204	     135.49805	     106.12488	     110.77881
       0.24904	     127.48718	     141.52527	      84.99146	      95.52002
       0.26214	      88.88245	     105.05676	     137.10022	     117.41638
       0.27525	     106.58264	     111.16028	     114.13574	      73.31848
       0.28836	      96.74072	      89.72168	     103.68347	      91.62903
       0.30147	     103.60718	      85.90698	     111.92322	     126.80054
       0.31457	     129.92859	      95.59631	      85.60181	     115.35645
       0.32768	     106.04858	     107.04041	     101.16577	     107.65076
       0.34079	     113.37280	      86.44104	     106.50635	     103.60718
       0.35389	     138.09204	     149.61243	     129.69971	     104.29382
       0.36700	     128.32642	      99.79248	     121.30737	     128.17383
       0.38011	     106.20117	      97.73254	     105.89600	      85.14404
       0.39322	      82.93152	     119.17114	      86.21216	     108.71887
       0.40632	     142.82227	      84.68628	     133.74329	      83.31299
       0.41943	     179.44336	     112.99133	     115.58533	     115.73792
       0.43254	     108.79517	     160.36987	     100.09766	     105.66711
       0.44564	      86.74622	     121.84143	     139.84680	      85.83069
       0.45875	      97.73254	      83.61816	     118.33191	     105.36194
       0.47186	      78.43018	      79.95605	      83.54187	     143.12744
       0.48497	     116.04309	      75.53101	      97.57996	     102.69165
       0.49807	     105.59082	     118.40820	     101.24207	     134.73511
       0.51118	     161.43799	      89.34021	     123.21472	     107.49817
       0.52429	     103.07312	     158.15735	     158.99658	      87.58545
       0.53740	      85.90698	     117.72156	     158.46252	     103.68347
       0.55050	     137.86316	     131.07300	      92.54456	     105.36194
       0.56361	     147.32361	      76.82800	      73.01331	     104.21753
       0.57672	      95.82520	     159.37805	     105.89600	     106.20117
       0.58982	     118.94226	      99.48730	      80.10864	      90.71350
       0.60293	     107.80334	      80.79529	      94.98596	     114.44092
       0.61604	     114.97498	     135.19287	     101.62354	     141.29639
       0.62915	     123.82507	      93.68896	     101.24207	     133.81958
       0.64225	     113.67798	     132.67517	     131.45447	     120.77332
       0.65536	      95.67261	      91.93420	     105.81970	     121.23108
       0.66847	      84.15222	      77.74353	     113.37280	     125.04578
       0.68157	     111.92322	     140.60974	      81.55823	     127.56348
       0.69468	      81.78711	     110.70251	      64.23950	     114.59351
       0.70779	     139.16016	      89.41650	     129.69971	      83.31299
       0.72090	     122.07031	      87.35657	     105.05676	     100.02136
       0.73400	     158.99658	      99.25842	     152.20642	      83.84705
       0.74711	     108.56628	     113.52539	     118.78967	     103.45459
       0.76022	     126.64795	     130.53894	     137.86316	      91.93420
       0.77332	      98.57178	     100.55542	     106.27747	     131.14929
       0.78643	      96.58813	      93.68896	      98.64807	      90.25574
       0.79954	     100.63171	     136.87134	      88.34839	     134.50623
       0.81265	     139.08386	      80.79529	     103.75977	     121.00220
       0.82575	     102.15759	     142.74597	     129.77600	     168.38074
       0.83886	     159.75952	     113.06763	      77.66724	      98.03772
       0.85197	     118.71338	      95.90149	      94.22302	     118.17932
       0.86508	     117.95044	      84.68628	     128.40271	      98.26660
       0.87818	     122.60437	      94.75708	     105.20935	      82.09229
       0.89129	     117.41638	      72.78442	     116.57715	      78.81165
       0.90440	     161.74316	     120.31555	      91.32385	      87.50916
       0.91750	     116.88232	      99.94507	      98.34290	      98.57178
       0.93061	      93.53638	     113.37280	     160.59875	      88.19580

Monitor Diode	      1.00
