ALV-7004/USB-FAST
Date :	"3/14/2024"
Time :	"12:32:54 PM"
Samplename : 	""
SampMemo(0) : 	""
SampMemo(1) : 	""
SampMemo(2) : 	""
SampMemo(3) : 	""
SampMemo(4) : 	""
SampMemo(5) : 	""
SampMemo(6) : 	""
SampMemo(7) : 	""
SampMemo(8) : 	""
SampMemo(9) : 	""
Temperature [K] :	     298.16000
Viscosity [cp]  :	       0.89000
Refractive Index:	       1.33200
Wavelength [nm] :	       0.00000
Angle [°]       :	       0.00000
Duration [s]    :	         1
FloatDur [ms]   :	          944
Stop TP [ms]   :	      3218
Runs            :	         1
Mode            :	"A-CH0+1  A-CH2+3 "
MeanCR0 [kHz]   :	     144.02389
MeanCR1 [kHz]   :	     134.87498
MeanCR2 [kHz]   :	     139.41130
MeanCR3 [kHz]   :	     137.02075

"Correlation"
  3.12500E-006	 -1.00000E+000	 -1.00000E+000	 -1.00000E+000	 -1.00000E+000
  6.25000E-006	 -1.00000E+000	 -1.00000E+000	 -1.00000E+000	 -1.00000E+000
  9.37500E-006	 -1.00000E+000	 -1.00000E+000	 -1.00000E+000	 -1.00000E+000
  1.25000E-005	 -1.00000E+000	 -1.00000E+000	 -1.00000E+000	 -1.00000E+000
  1.56250E-005	 -1.00000E+000	 -1.00000E+000	 -1.00000E+000	 -1.00000E+000
  1.87500E-005	 -1.00000E+000	 -1.00000E+000	 -1.00000E+000	 -1.00000E+000
  2.18750E-005	 -9.01918E-001	 -4.03522E-001	 -3.19581E-001	 -9.81939E-001
  2.50000E-005	  5.34264E+000	  5.97134E+000	  4.89696E+000	  1.03963E+001
  2.81250E-005	  2.17132E+000	  1.40455E+000	  1.04126E+000	  4.03894E+000
  3.12500E-005	  9.45295E-001	  8.45355E-001	  1.04126E+000	  2.50378E+000
  3.43750E-005	  1.10876E+000	  7.33515E-001	  6.92323E-001	  2.34123E+000
  3.75000E-005	  7.32783E-001	  7.33515E-001	  7.09770E-001	  1.70911E+000
  4.06250E-005	  3.73149E-001	  6.96235E-001	  6.92323E-001	  1.47432E+000
  4.37500E-005	  6.83742E-001	  5.47116E-001	  3.95731E-001	  1.23953E+000
  4.68750E-005	  7.49130E-001	  5.09836E-001	  6.05090E-001	  1.16729E+000
  5.00000E-005	  7.81824E-001	  5.93716E-001	  6.48707E-001	  1.22147E+000
  5.62500E-005	  5.61140E-001	  7.05555E-001	  6.13814E-001	  1.06795E+000
  6.25000E-005	  5.77487E-001	  6.21676E-001	  6.66153E-001	  1.05892E+000
  6.87500E-005	  4.63058E-001	  6.49635E-001	  4.74240E-001	  1.00474E+000
  7.50000E-005	  5.36619E-001	  6.30996E-001	  4.48070E-001	  5.62252E-001
  8.12500E-005	  5.36619E-001	  4.63236E-001	  6.74877E-001	  5.62252E-001
  8.75000E-005	  6.83742E-001	  6.12356E-001	  6.66153E-001	  5.80312E-001
  9.37500E-005	  5.69313E-001	  4.72556E-001	  7.97003E-001	  5.80312E-001
  1.00000E-004	  6.46961E-001	  5.42456E-001	  4.82964E-001	  6.97707E-001
  1.12500E-004	  5.32532E-001	  5.23816E-001	  5.61473E-001	  5.66767E-001
  1.25000E-004	  5.57053E-001	  5.19156E-001	  4.52432E-001	  4.58402E-001
  1.37500E-004	  4.05843E-001	  6.30995E-001	  4.39347E-001	  4.26796E-001
  1.50000E-004	  4.75318E-001	  4.11976E-001	  4.74240E-001	  4.94524E-001
  1.62500E-004	  4.54884E-001	  5.33136E-001	  4.82964E-001	  5.30645E-001
  1.75000E-004	  3.64975E-001	  4.81876E-001	  4.21900E-001	  4.04220E-001
  1.87500E-004	  5.20272E-001	  6.58955E-001	  6.39983E-001	  4.04220E-001
  2.00000E-004	  5.87703E-001	  6.51965E-001	  5.20037E-001	  5.78054E-001
  2.25000E-004	  4.87578E-001	  5.91385E-001	  5.50569E-001	  4.90008E-001
  2.50000E-004	  5.28445E-001	  5.28475E-001	  3.60837E-001	  5.21614E-001
  2.75000E-004	  5.14142E-001	  5.56435E-001	  4.04453E-001	  5.80312E-001
  3.00000E-004	  4.05843E-001	  5.30805E-001	  4.45889E-001	  4.99039E-001
  3.25000E-004	  4.11973E-001	  5.68085E-001	  5.96366E-001	  4.92266E-001
  3.50000E-004	  4.01756E-001	  5.63425E-001	  5.83281E-001	  4.78720E-001
  3.75000E-004	  4.77361E-001	  5.21485E-001	  5.13495E-001	  5.46448E-001
  4.00000E-004	  4.66122E-001	  4.93525E-001	  4.41527E-001	  5.08068E-001
  4.50000E-004	  4.37514E-001	  5.51775E-001	  4.46979E-001	  4.24538E-001
  5.00000E-004	  4.82469E-001	  5.20320E-001	  4.56793E-001	  4.83235E-001
  5.50000E-004	  4.75317E-001	  4.56245E-001	  4.36075E-001	  4.22280E-001
  6.00000E-004	  4.89620E-001	  5.49445E-001	  4.85143E-001	  4.84364E-001
  6.50000E-004	  4.69187E-001	  5.06340E-001	  4.32804E-001	  4.86621E-001
  7.00000E-004	  4.51818E-001	  5.30805E-001	  5.99637E-001	  5.32902E-001
  7.50000E-004	  4.88599E-001	  4.77215E-001	  4.84053E-001	  4.65174E-001
  8.00000E-004	  5.08532E-001	  4.81291E-001	  4.78066E-001	  4.82105E-001
  9.00000E-004	  5.00358E-001	  5.72161E-001	  4.28997E-001	  4.87184E-001
  1.00000E-003	  4.80946E-001	  4.99931E-001	  4.76975E-001	  5.22741E-001
  1.10000E-003	  4.69196E-001	  5.22648E-001	  5.27135E-001	  4.47677E-001
  1.20000E-003	  5.32541E-001	  5.25561E-001	  4.94967E-001	  5.07503E-001
  1.30000E-003	  4.78902E-001	  5.47696E-001	  4.78066E-001	  5.03552E-001
  1.40000E-003	  4.71240E-001	  5.47113E-001	  5.09143E-001	  4.39211E-001
  1.50000E-003	  4.58979E-001	  5.27308E-001	  4.82427E-001	  4.32438E-001
  1.60000E-003	  4.74058E-001	  5.11578E-001	  4.52449E-001	  4.67710E-001
  1.80000E-003	  4.67161E-001	  5.17986E-001	  4.86798E-001	  4.73930E-001
  2.00000E-003	  4.34978E-001	  5.03423E-001	  4.34730E-001	  4.54740E-001
  2.20000E-003	  4.61542E-001	  5.10705E-001	  4.45351E-001	  4.91144E-001
  2.40000E-003	  4.82476E-001	  4.84492E-001	  4.54619E-001	  4.98764E-001
  2.60000E-003	  4.96013E-001	  4.68474E-001	  4.78336E-001	  4.89169E-001
  2.80000E-003	  4.83497E-001	  4.75172E-001	  4.35548E-001	  4.63206E-001
  3.00000E-003	  4.37521E-001	  5.01094E-001	  4.44816E-001	  4.82960E-001
  3.20000E-003	  4.66518E-001	  5.30068E-001	  4.39654E-001	  4.71538E-001
  3.60000E-003	  4.48766E-001	  4.97448E-001	  4.68823E-001	  4.84801E-001
  4.00000E-003	  4.74564E-001	  5.25699E-001	  4.39245E-001	  4.41201E-001
  4.40000E-003	  4.56045E-001	  4.94972E-001	  4.80000E-001	  4.70973E-001
  4.80000E-003	  4.63580E-001	  5.00069E-001	  4.70186E-001	  4.72807E-001
  5.20000E-003	  4.63580E-001	  5.04158E-001	  4.64870E-001	  4.79721E-001
  5.60000E-003	  4.41348E-001	  5.06197E-001	  4.47685E-001	  4.51078E-001
  6.00000E-003	  4.76724E-001	  4.60616E-001	  4.20152E-001	  4.65611E-001
  6.40000E-003	  4.56802E-001	  4.87037E-001	  4.52899E-001	  4.69352E-001
  7.20000E-003	  4.86111E-001	  4.88141E-001	  4.59510E-001	  4.60039E-001
  8.00000E-003	  4.65294E-001	  4.79779E-001	  4.73413E-001	  4.71892E-001
  8.80000E-003	  4.61335E-001	  4.83638E-001	  4.59703E-001	  4.62991E-001
  9.60000E-003	  4.54247E-001	  4.97412E-001	  4.42665E-001	  4.69482E-001
  1.04000E-002	  4.60505E-001	  4.77461E-001	  4.37076E-001	  4.56077E-001
  1.12000E-002	  4.63187E-001	  4.76296E-001	  4.48458E-001	  4.68565E-001
  1.20000E-002	  4.60314E-001	  4.94791E-001	  4.50355E-001	  4.52832E-001
  1.28000E-002	  4.46459E-001	  4.87817E-001	  4.42268E-001	  4.48437E-001
  1.44000E-002	  4.41957E-001	  4.90365E-001	  4.39633E-001	  4.45685E-001
  1.60000E-002	  4.36880E-001	  4.83630E-001	  4.35397E-001	  4.48130E-001
  1.76000E-002	  4.39339E-001	  4.74274E-001	  4.40031E-001	  4.42451E-001
  1.92000E-002	  4.35635E-001	  4.69796E-001	  4.23821E-001	  4.37124E-001
  2.08000E-002	  4.45022E-001	  4.61943E-001	  4.23003E-001	  4.39569E-001
  2.24000E-002	  4.25195E-001	  4.79673E-001	  4.29229E-001	  4.24566E-001
  2.40000E-002	  4.26600E-001	  4.70608E-001	  4.16109E-001	  4.28129E-001
  2.56000E-002	  4.32398E-001	  4.68516E-001	  4.16253E-001	  4.35278E-001
  2.88000E-002	  4.22149E-001	  4.53271E-001	  4.21852E-001	  4.19986E-001
  3.20000E-002	  4.16402E-001	  4.55146E-001	  4.03201E-001	  4.14285E-001
  3.52000E-002	  4.08920E-001	  4.53858E-001	  3.90687E-001	  4.20299E-001
  3.84000E-002	  4.11134E-001	  4.44167E-001	  4.03201E-001	  4.10581E-001
  4.16000E-002	  4.06744E-001	  4.31053E-001	  3.86577E-001	  4.03667E-001
  4.48000E-002	  3.91115E-001	  4.28322E-001	  3.90387E-001	  3.96823E-001
  4.80000E-002	  3.80611E-001	  4.25840E-001	  3.82924E-001	  3.93691E-001
  5.12000E-002	  3.86949E-001	  4.16889E-001	  3.77008E-001	  3.87098E-001
  5.76000E-002	  3.77320E-001	  4.07768E-001	  3.62668E-001	  3.82157E-001
  6.40000E-002	  3.71733E-001	  3.97302E-001	  3.49519E-001	  3.66740E-001
  7.04000E-002	  3.61321E-001	  3.90306E-001	  3.45128E-001	  3.56060E-001
  7.68000E-002	  3.43648E-001	  3.85966E-001	  3.33431E-001	  3.49843E-001
  8.32000E-002	  3.39595E-001	  3.73641E-001	  3.25053E-001	  3.41364E-001
  8.96000E-002	  3.30815E-001	  3.68272E-001	  3.19309E-001	  3.29802E-001
  9.60000E-002	  3.20350E-001	  3.50368E-001	  3.15668E-001	  3.24353E-001
  1.02400E-001	  3.14049E-001	  3.46908E-001	  3.03038E-001	  3.15480E-001
  1.15200E-001	  3.00647E-001	  3.33203E-001	  2.87241E-001	  3.05699E-001
  1.28000E-001	  2.86043E-001	  3.24997E-001	  2.76096E-001	  2.91696E-001
  1.40800E-001	  2.72703E-001	  3.09339E-001	  2.63025E-001	  2.77337E-001
  1.53600E-001	  2.60013E-001	  2.95206E-001	  2.50905E-001	  2.66107E-001
  1.66400E-001	  2.46307E-001	  2.79790E-001	  2.37394E-001	  2.53447E-001
  1.79200E-001	  2.41541E-001	  2.76121E-001	  2.32767E-001	  2.42880E-001
  1.92000E-001	  2.31148E-001	  2.60841E-001	  2.18726E-001	  2.30854E-001
  2.04800E-001	  2.21664E-001	  2.55525E-001	  2.08616E-001	  2.22074E-001
  2.30400E-001	  2.02767E-001	  2.34940E-001	  1.92495E-001	  2.04841E-001
  2.56000E-001	  1.86123E-001	  2.21680E-001	  1.75195E-001	  1.87328E-001
  2.81600E-001	  1.69645E-001	  2.06083E-001	  1.59655E-001	  1.73000E-001
  3.07200E-001	  1.60188E-001	  1.92323E-001	  1.44392E-001	  1.59569E-001
  3.32800E-001	  1.48986E-001	  1.78542E-001	  1.33814E-001	  1.47425E-001
  3.58400E-001	  1.37516E-001	  1.68897E-001	  1.23442E-001	  1.35383E-001
  3.84000E-001	  1.26276E-001	  1.59409E-001	  1.19343E-001	  1.31539E-001
  4.09600E-001	  1.16275E-001	  1.50167E-001	  1.12132E-001	  1.19614E-001
  4.60800E-001	  1.01701E-001	  1.35605E-001	  9.52385E-002	  1.04366E-001
  5.12000E-001	  8.51129E-002	  1.22935E-001	  8.53425E-002	  9.26745E-002
  5.63200E-001	  7.79085E-002	  1.13786E-001	  7.21471E-002	  7.86795E-002
  6.14400E-001	  6.41932E-002	  1.02170E-001	  6.26068E-002	  7.16627E-002
  6.65600E-001	  5.90916E-002	  9.41020E-002	  5.75912E-002	  6.17620E-002
  7.16800E-001	  5.17575E-002	  8.71575E-002	  5.32434E-002	  5.21072E-002
  7.68000E-001	  4.36284E-002	  8.07500E-002	  4.77549E-002	  4.41946E-002
  8.19200E-001	  3.37502E-002	  7.21274E-002	  4.24041E-002	  3.52351E-002
  9.21600E-001	  2.42135E-002	  5.79243E-002	  3.62958E-002	  2.45401E-002
  1.02400E+000	  1.82974E-002	  4.98302E-002	  2.87235E-002	  1.85432E-002
  1.12640E+000	  1.69330E-002	  4.18022E-002	  2.28982E-002	  1.40763E-002
  1.22880E+000	  1.14212E-002	  3.50228E-002	  1.78818E-002	  7.82335E-003
  1.33120E+000	  8.58343E-003	  2.95941E-002	  1.07656E-002	  5.91043E-004
  1.43360E+000	  4.97289E-003	  2.19798E-002	  6.45748E-003	  6.14979E-004
  1.53600E+000	  1.94100E-003	  1.60725E-002	  3.19775E-003	 -8.22582E-004
  1.63840E+000	  3.19419E-003	  1.17948E-002	 -1.29264E-003	 -1.64344E-003
  1.84320E+000	 -1.43987E-003	  3.54558E-003	 -3.26242E-003	 -3.44758E-003
  2.04800E+000	 -2.77918E-003	 -1.06602E-003	  1.58512E-003	  3.16320E-003
  2.25280E+000	 -6.15311E-003	 -2.14709E-003	  2.75865E-003	  4.33752E-003
  2.45760E+000	 -6.69584E-003	 -2.78403E-004	  4.04745E-003	  6.15961E-003
  2.66240E+000	 -1.08292E-002	  3.40850E-003	 -1.12835E-003	  1.75232E-003
  2.86720E+000	 -7.74690E-003	  7.83670E-003	 -3.12660E-003	 -3.94431E-003
  3.07200E+000	 -7.07080E-004	  1.30884E-002	 -5.98616E-003	 -3.04993E-003
  3.27680E+000	 -5.84062E-003	  1.47091E-002	 -1.34224E-002	 -4.89665E-003
  3.68640E+000	 -1.45614E-002	  9.44550E-003	 -2.11462E-002	  1.97825E-003
  4.09600E+000	 -1.08822E-002	  1.53823E-002	 -1.50312E-002	  7.96415E-003
  4.50560E+000	 -3.22821E-003	  1.08068E-002	 -9.80656E-003	  3.45124E-003
  4.91520E+000	  1.99555E-003	  5.02825E-003	 -4.42638E-003	 -1.23651E-003
  5.32480E+000	  2.01810E-003	  7.90497E-003	  6.42273E-004	  2.61375E-003
  5.73440E+000	  5.80116E-003	 -1.16909E-003	  3.04346E-003	  8.56124E-003
  6.14400E+000	  5.94141E-003	  1.18670E-003	 -5.74405E-003	  1.42709E-002
  6.55360E+000	  4.50044E-003	 -6.97309E-005	 -1.14806E-002	  1.19743E-002
  7.37280E+000	 -2.87148E-003	 -2.98198E-003	 -4.79714E-003	 -1.54820E-002
  8.19200E+000	 -2.41487E-003	  7.55978E-003	  1.66544E-003	 -1.37793E-002
  9.01120E+000	 -7.21036E-003	 -1.99674E-003	  3.34453E-003	  1.13250E-002
  9.83040E+000	 -7.72225E-003	 -4.13280E-004	  1.73276E-003	  6.31638E-003
  1.06496E+001	 -9.26587E-003	 -1.40237E-002	  5.07799E-003	  1.92943E-003
  1.14688E+001	 -3.84263E-003	 -1.77181E-002	  4.26284E-003	  8.06450E-004
  1.22880E+001	 -6.79144E-003	 -6.91351E-003	 -6.66428E-003	 -2.79074E-003
  1.31072E+001	  3.43130E-003	 -5.34554E-003	 -1.28516E-002	  3.40678E-003
  1.47456E+001	  7.90439E-003	 -3.72603E-003	 -8.34602E-003	 -2.05518E-003
  1.63840E+001	 -4.61747E-003	 -1.29456E-002	  2.47713E-003	  2.90166E-003
  1.80224E+001	 -5.67301E-003	  1.27146E-004	 -7.60283E-003	  6.63530E-004
  1.96608E+001	  7.09390E-003	 -3.27201E-003	 -6.43567E-004	 -6.40491E-003
  2.12992E+001	  1.14343E-003	 -1.72001E-003	  7.12331E-003	 -1.31391E-002
  2.29376E+001	 -2.83908E-003	  5.39178E-003	  1.11634E-002	  3.68532E-003
  2.45760E+001	 -4.82317E-004	  9.10891E-003	 -3.76432E-003	  3.68319E-003
  2.62144E+001	 -2.02276E-003	  4.03407E-003	 -2.29968E-003	  4.73191E-003
  2.94912E+001	  1.01770E-003	  3.89726E-003	 -1.01579E-003	  3.13532E-003
  3.27680E+001	 -1.84004E-003	  1.10619E-002	  5.57743E-004	 -5.05739E-003
  3.60448E+001	 -1.48450E-004	 -8.12683E-004	  3.16952E-003	 -1.62045E-003
  3.93216E+001	 -5.73351E-003	 -3.99577E-003	  2.12501E-003	  7.72190E-003
  4.25984E+001	 -5.88819E-003	 -7.85570E-003	 -5.17186E-003	  4.22127E-003
  4.58752E+001	  5.62249E-003	  3.02009E-003	  5.13852E-003	 -1.01856E-002
  4.91520E+001	  3.38042E-004	 -9.00744E-004	 -2.09674E-003	 -1.10174E-002
  5.24288E+001	 -1.17619E-003	  1.25385E-003	 -4.44115E-003	 -1.69150E-003
  5.89824E+001	  2.69397E-003	  1.40169E-002	  3.96278E-003	  7.75819E-003
  6.55360E+001	  4.26486E-003	 -2.64238E-003	  6.78973E-003	  1.02745E-003
  7.20896E+001	  1.51951E-003	  3.47849E-003	 -3.48737E-003	 -4.29597E-003
  7.86432E+001	 -1.63763E-003	  1.00004E-002	  2.06342E-003	 -6.02279E-003
  8.51968E+001	  1.29786E-003	  1.40375E-002	  2.22445E-003	 -3.53884E-003
  9.17504E+001	 -3.05914E-003	  2.97741E-003	 -6.55090E-003	 -6.27582E-003
  9.83040E+001	 -4.74417E-004	 -6.81109E-003	 -3.62399E-003	  4.54890E-003
  1.04858E+002	 -2.20387E-003	  1.26946E-003	 -8.84709E-004	 -4.90661E-003
  1.17965E+002	 -6.57694E-004	 -2.73080E-003	 -2.07583E-004	  5.41436E-003
  1.31072E+002	 -2.45860E-003	  6.16337E-003	 -1.53616E-003	 -5.35130E-003
  1.44179E+002	 -2.50499E-003	  1.77068E-003	 -2.64663E-003	 -2.99641E-003
  1.57286E+002	 -3.33110E-003	 -7.83541E-004	 -1.46146E-003	  1.06395E-003
  1.70394E+002	 -1.78163E-003	  3.12202E-003	 -2.81401E-003	 -5.83366E-004
  1.83501E+002	 -4.53259E-005	 -4.50352E-003	 -2.59341E-003	  5.63271E-003
  1.96608E+002	 -8.61634E-004	  4.76682E-004	  8.43481E-004	 -2.14155E-003
  2.09715E+002	 -2.13742E-003	 -1.36828E-003	 -3.67823E-004	  2.76298E-004
  2.35930E+002	 -8.88800E-004	  3.15090E-003	 -2.38258E-004	 -1.10120E-003
  2.62144E+002	  3.05753E-003	  3.21745E-003	 -5.99123E-004	 -2.35216E-003
  2.88358E+002	  4.23694E-004	 -2.39380E-003	  1.24393E-003	 -3.99519E-003
  3.14573E+002	  2.70573E-003	  2.73200E-003	 -2.38802E-004	 -2.11187E-003
  3.40787E+002	  1.65298E-003	  6.70951E-003	  6.68171E-004	  2.84586E-003
  3.67002E+002	  2.09699E-003	  3.96268E-004	  2.75007E-003	  1.20117E-003
  3.93216E+002	 -3.15028E-003	  2.09875E-004	  2.08559E-004	  3.31844E-003

"Count Rate"
       0.01311	     139.99939	     109.78699	     105.89600	     123.36731
       0.02621	     121.07849	     123.36731	     151.51978	     165.86304
       0.03932	     128.02124	     133.74329	     134.81140	     145.87402
       0.05243	     111.16028	     165.17639	     125.80872	     151.29089
       0.06554	     128.17383	     122.75696	     171.50879	     138.54980
       0.07864	     158.92029	     158.76770	     125.57983	     150.14648
       0.09175	     129.01306	     128.09753	     159.75952	     142.82227
       0.10486	     150.29907	     126.41907	     157.16553	     147.24731
       0.11796	     140.22827	     159.75952	     115.20386	     135.49805
       0.13107	     179.90112	     166.24451	     116.50085	      98.26660
       0.14418	     142.44080	     127.86865	     157.24182	     132.52258
       0.15729	     168.22815	     121.15479	     121.38367	     165.55786
       0.17039	     148.01025	     152.74048	     127.56348	     140.07568
       0.18350	     123.36731	     120.31555	     113.98315	      87.12769
       0.19661	     129.08936	     166.24451	     100.63171	     109.78699
       0.20972	     150.90942	     185.85205	     157.54700	     100.78430
       0.22282	     163.49792	     140.83862	     151.29089	     112.30469
       0.23593	     148.84949	     119.01855	     108.33740	     131.75964
       0.24904	     136.10840	     144.19556	     135.34546	     112.91504
       0.26214	     108.71887	     118.25562	     119.85779	     162.50610
       0.27525	     136.33728	     186.46240	     122.90955	     131.30188
       0.28836	     130.61523	     142.44080	     122.60437	     162.27722
       0.30147	     128.86047	     172.88208	     154.34265	     133.74329
       0.31457	     178.83301	     136.33728	     140.15198	     149.53613
       0.32768	     129.77600	     132.14111	     156.93665	     137.40540
       0.34079	     134.96399	     123.82507	     159.98840	     168.07556
       0.35389	     109.63440	     193.63403	     155.94482	     117.03491
       0.36700	     143.20374	      93.61267	     141.98303	     129.24194
       0.38011	     160.06470	     127.86865	     137.93945	     142.44080
       0.39322	     130.92041	     111.31287	     164.26086	     101.62354
       0.40632	     135.34546	     144.27185	     164.56604	     162.50610
       0.41943	     141.44897	     135.04028	     157.01294	     110.85510
       0.43254	     162.04834	     163.87939	     127.18201	     133.66699
       0.44564	     169.06738	     111.00769	     128.70789	     154.26636
       0.45875	     149.38354	      90.71350	     150.90942	     148.16284
       0.47186	     123.97766	     165.17639	     130.53894	     149.00208
       0.48497	     159.83582	     113.60168	     144.72961	     116.72974
       0.49807	     181.50330	     134.42993	     118.40820	     177.53601
       0.51118	     152.35901	     154.80042	     127.10571	     117.41638
       0.52429	     138.01575	     107.72705	     162.73499	     133.13293
       0.53740	     132.37000	     140.22827	     129.39453	     110.85510
       0.55050	     118.40820	     153.65601	     125.42725	     108.26111
       0.56361	     163.42163	     110.39734	     153.65601	     162.65869
       0.57672	     124.89319	     125.19836	     124.20654	     149.15466
       0.58982	     128.55530	     134.20105	     135.80322	     109.78699
       0.60293	     113.67798	     134.42993	     109.63440	     101.54724
       0.61604	     156.93665	     141.29639	     156.70776	     121.76514
       0.62915	     131.14929	     151.13831	     125.27466	     127.25830
       0.64225	     124.58801	     187.45422	     136.18469	     136.64246
       0.65536	     148.92578	     103.22571	     110.62622	     125.57983
       0.66847	     137.71057	      68.20679	     137.55798	     122.83325
       0.68157	     150.75684	     191.19263	     151.82495	     180.05371
       0.69468	     141.37268	      96.05408	     156.09741	     163.65051
       0.70779	     128.55530	     133.81958	     132.67517	     111.92322
       0.72090	     135.57434	     102.69165	     138.70239	     135.26917
       0.73400	     148.62061	     107.04041	     118.02673	     126.57166
       0.74711	     148.46802	     128.93677	     132.82776	     137.71057
       0.76022	     187.83569	     102.23389	     170.74585	     126.34277
       0.77332	     115.58533	     134.35364	     128.02124	     137.63428
       0.78643	     153.80859	     112.76245	     138.54980	     127.63977
       0.79954	     143.73779	     135.34546	     110.93140	     120.77332
       0.81265	     162.12463	     139.99939	     158.46252	     128.09753
       0.82575	     135.57434	     116.72974	     118.71338	     137.25281
       0.83886	     158.00476	     104.52271	     116.65344	     156.78406
       0.85197	     170.66956	     120.16296	     116.95862	     125.42725
       0.86508	     135.49805	     138.93127	     157.69958	     137.02393
       0.87818	     145.33997	     118.56079	     145.26367	     144.19556
       0.89129	     135.19287	     123.67249	     133.66699	     132.06482
       0.90440	     139.84680	     145.87402	     161.13281	     129.24194
       0.91750	     132.98035	     115.73792	     119.01855	     122.45178
       0.93061	     113.06763	     103.07312	     192.64221	     161.43799

Monitor Diode	      1.00
