ALV-7004/USB-FAST
Date :	"3/14/2024"
Time :	"12:37:44 PM"
Samplename : 	""
SampMemo(0) : 	""
SampMemo(1) : 	""
SampMemo(2) : 	""
SampMemo(3) : 	""
SampMemo(4) : 	""
SampMemo(5) : 	""
SampMemo(6) : 	""
SampMemo(7) : 	""
SampMemo(8) : 	""
SampMemo(9) : 	""
Temperature [K] :	     298.16000
Viscosity [cp]  :	       0.89000
Refractive Index:	       1.33200
Wavelength [nm] :	       0.00000
Angle [°]       :	       0.00000
Duration [s]    :	         1
FloatDur [ms]   :	          944
Stop TP [ms]   :	      4086
Runs            :	         1
Mode            :	"A-CH0+1  A-CH2+3 "
MeanCR0 [kHz]   :	     137.67878
MeanCR1 [kHz]   :	     136.22708
MeanCR2 [kHz]   :	     138.71298
MeanCR3 [kHz]   :	     135.89011

"Correlation"
  3.12500E-006	 -1.00000E+000	 -1.00000E+000	 -1.00000E+000	 -1.00000E+000
  6.25000E-006	 -1.00000E+000	 -1.00000E+000	 -1.00000E+000	 -1.00000E+000
  9.37500E-006	 -1.00000E+000	 -1.00000E+000	 -1.00000E+000	 -1.00000E+000
  1.25000E-005	 -1.00000E+000	 -1.00000E+000	 -1.00000E+000	 -1.00000E+000
  1.56250E-005	 -1.00000E+000	 -1.00000E+000	 -1.00000E+000	 -1.00000E+000
  1.87500E-005	 -1.00000E+000	 -1.00000E+000	 -1.00000E+000	 -1.00000E+000
  2.18750E-005	 -9.64223E-001	 -4.15303E-001	 -4.36073E-001	 -9.81637E-001
  2.50000E-005	  5.81551E+000	  5.96154E+000	  5.32656E+000	  1.04215E+001
  2.81250E-005	  1.91582E+000	  1.33879E+000	  1.44956E+000	  4.14150E+000
  3.12500E-005	  1.03929E+000	  7.17547E-001	  7.27028E-001	  2.69086E+000
  3.43750E-005	  7.17294E-001	  6.99275E-001	  4.62687E-001	  1.77274E+000
  3.75000E-005	  8.60402E-001	  1.17434E+000	  5.68423E-001	  1.64420E+000
  4.06250E-005	  6.09963E-001	  7.90634E-001	  3.74573E-001	  1.75437E+000
  4.37500E-005	  8.06737E-001	  6.44459E-001	  8.50387E-001	  1.68093E+000
  4.68750E-005	  6.63629E-001	  6.26188E-001	  7.62273E-001	  1.55239E+000
  5.00000E-005	  5.65242E-001	  5.62236E-001	  7.18216E-001	  1.02906E+000
  5.62500E-005	  5.92075E-001	  5.34829E-001	  3.56950E-001	  1.14841E+000
  6.25000E-005	  4.66855E-001	  6.26188E-001	  5.15555E-001	  1.03824E+000
  6.87500E-005	  5.56298E-001	  5.80508E-001	  4.36253E-001	  9.37244E-001
  7.50000E-005	  5.29465E-001	  7.72362E-001	  6.56537E-001	  7.99525E-001
  8.12500E-005	  4.04246E-001	  6.90139E-001	  6.38914E-001	  5.24087E-001
  8.75000E-005	  5.92075E-001	  6.35323E-001	  3.92196E-001	  5.60812E-001
  9.37500E-005	  6.63629E-001	  3.42975E-001	  4.27441E-001	  9.55606E-001
  1.00000E-004	  5.24993E-001	  5.02853E-001	  5.33178E-001	  7.58209E-001
  1.12500E-004	  5.20521E-001	  5.11989E-001	  5.24366E-001	  5.83765E-001
  1.25000E-004	  5.20521E-001	  3.79519E-001	  5.06743E-001	  4.50637E-001
  1.37500E-004	  6.23380E-001	  3.93222E-001	  6.25697E-001	  4.50637E-001
  1.50000E-004	  5.60770E-001	  5.21125E-001	  6.65348E-001	  4.23094E-001
  1.62500E-004	  3.72941E-001	  4.25198E-001	  4.36253E-001	  5.14906E-001
  1.75000E-004	  4.48967E-001	  5.85076E-001	  4.45064E-001	  4.13912E-001
  1.87500E-004	  3.81885E-001	  4.38902E-001	  4.97932E-001	  5.24087E-001
  2.00000E-004	  4.37786E-001	  5.43964E-001	  6.30102E-001	  5.40154E-001
  2.25000E-004	  6.07727E-001	  4.66309E-001	  4.31847E-001	  5.21792E-001
  2.50000E-004	  4.64619E-001	  4.91433E-001	  5.97060E-001	  5.24087E-001
  2.75000E-004	  4.44494E-001	  5.32544E-001	  4.58281E-001	  4.25389E-001
  3.00000E-004	  4.33314E-001	  4.80013E-001	  5.64017E-001	  4.48342E-001
  3.25000E-004	  5.63006E-001	  4.43469E-001	  4.84715E-001	  5.01134E-001
  3.50000E-004	  4.89216E-001	  4.68593E-001	  4.89120E-001	  4.43751E-001
  3.75000E-004	  5.02632E-001	  4.70877E-001	  4.62686E-001	  4.62114E-001
  4.00000E-004	  5.24992E-001	  4.68592E-001	  4.58280E-001	  4.31126E-001
  4.50000E-004	  5.59651E-001	  5.01710E-001	  4.19730E-001	  4.89657E-001
  5.00000E-004	  4.74681E-001	  5.17698E-001	  4.86917E-001	  4.46046E-001
  5.50000E-004	  4.84743E-001	  4.90290E-001	  4.42860E-001	  4.60965E-001
  6.00000E-004	  4.69090E-001	  4.85722E-001	  5.29872E-001	  4.56375E-001
  6.50000E-004	  4.50084E-001	  5.10846E-001	  4.27440E-001	  4.39160E-001
  7.00000E-004	  5.27228E-001	  4.94858E-001	  4.53874E-001	  4.28831E-001
  7.50000E-004	  5.59651E-001	  5.33686E-001	  4.12020E-001	  5.01133E-001
  8.00000E-004	  5.16605E-001	  4.72017E-001	  4.83611E-001	  4.71867E-001
  9.00000E-004	  4.57909E-001	  4.50890E-001	  4.88017E-001	  4.54078E-001
  1.00000E-003	  5.21637E-001	  4.60026E-001	  4.43410E-001	  4.39159E-001
  1.10000E-003	  4.79151E-001	  5.32542E-001	  4.52221E-001	  4.18501E-001
  1.20000E-003	  4.60704E-001	  4.96570E-001	  4.75902E-001	  4.70145E-001
  1.30000E-003	  4.27722E-001	  4.99425E-001	  3.90542E-001	  4.21370E-001
  1.40000E-003	  4.75238E-001	  4.63452E-001	  4.10918E-001	  3.81776E-001
  1.50000E-003	  4.85301E-001	  4.93144E-001	  5.08393E-001	  5.02280E-001
  1.60000E-003	  4.67689E-001	  4.87717E-001	  5.12521E-001	  4.46616E-001
  1.80000E-003	  4.72161E-001	  5.26830E-001	  4.69290E-001	  4.68134E-001
  2.00000E-003	  5.23870E-001	  4.77725E-001	  4.52494E-001	  4.58666E-001
  2.20000E-003	  4.60422E-001	  4.72871E-001	  4.35973E-001	  4.98547E-001
  2.40000E-003	  4.82783E-001	  5.01421E-001	  4.63508E-001	  4.75020E-001
  2.60000E-003	  4.56229E-001	  4.78581E-001	  4.19176E-001	  4.38869E-001
  2.80000E-003	  4.76633E-001	  4.77154E-001	  4.69566E-001	  4.81045E-001
  3.00000E-003	  4.88932E-001	  4.91143E-001	  4.79203E-001	  4.44894E-001
  3.20000E-003	  4.49097E-001	  4.75733E-001	  4.35279E-001	  4.48332E-001
  3.60000E-003	  4.74392E-001	  4.65740E-001	  4.57170E-001	  4.50771E-001
  4.00000E-003	  4.76489E-001	  4.69023E-001	  4.45192E-001	  4.78315E-001
  4.40000E-003	  4.64051E-001	  4.75590E-001	  4.47395E-001	  4.38577E-001
  4.80000E-003	  4.56236E-001	  4.44328E-001	  4.46018E-001	  4.51919E-001
  5.20000E-003	  4.64621E-001	  4.62029E-001	  4.39547E-001	  4.52636E-001
  5.60000E-003	  4.70211E-001	  4.54178E-001	  4.61025E-001	  4.41160E-001
  6.00000E-003	  4.57214E-001	  4.65169E-001	  4.50011E-001	  4.52062E-001
  6.40000E-003	  4.65450E-001	  4.49611E-001	  4.60900E-001	  4.56164E-001
  7.20000E-003	  4.53850E-001	  4.69096E-001	  4.53396E-001	  4.48859E-001
  8.00000E-003	  4.73765E-001	  4.51395E-001	  4.46443E-001	  4.44914E-001
  8.80000E-003	  4.49867E-001	  4.59389E-001	  4.44929E-001	  4.36665E-001
  9.60000E-003	  4.54630E-001	  4.42391E-001	  4.31712E-001	  4.40395E-001
  1.04000E-002	  4.59661E-001	  4.62447E-001	  4.27593E-001	  4.32146E-001
  1.12000E-002	  4.63644E-001	  4.38037E-001	  4.37368E-001	  4.29707E-001
  1.20000E-002	  4.43729E-001	  4.48815E-001	  4.48589E-001	  4.23262E-001
  1.28000E-002	  4.41589E-001	  4.50234E-001	  4.37289E-001	  4.17406E-001
  1.44000E-002	  4.47005E-001	  4.37886E-001	  4.34030E-001	  4.42153E-001
  1.60000E-002	  4.35266E-001	  4.53635E-001	  4.13412E-001	  4.18302E-001
  1.76000E-002	  4.27859E-001	  4.29618E-001	  4.06883E-001	  4.13758E-001
  1.92000E-002	  4.43092E-001	  4.24633E-001	  4.11702E-001	  4.28764E-001
  2.08000E-002	  4.17936E-001	  4.10465E-001	  3.89029E-001	  3.96019E-001
  2.24000E-002	  4.13604E-001	  4.27202E-001	  3.90544E-001	  4.08751E-001
  2.40000E-002	  4.14163E-001	  4.15508E-001	  3.96647E-001	  3.97991E-001
  2.56000E-002	  4.10135E-001	  4.13316E-001	  3.97787E-001	  3.94006E-001
  2.88000E-002	  4.03043E-001	  3.99997E-001	  3.83933E-001	  3.90358E-001
  3.20000E-002	  4.00678E-001	  3.89505E-001	  3.80101E-001	  3.64075E-001
  3.52000E-002	  3.85309E-001	  3.83242E-001	  3.66120E-001	  3.59305E-001
  3.84000E-002	  3.76260E-001	  3.77192E-001	  3.51704E-001	  3.61590E-001
  4.16000E-002	  3.71962E-001	  3.65040E-001	  3.56340E-001	  3.65230E-001
  4.48000E-002	  3.60642E-001	  3.63648E-001	  3.37357E-001	  3.60779E-001
  4.80000E-002	  3.48152E-001	  3.47971E-001	  3.32642E-001	  3.40838E-001
  5.12000E-002	  3.42600E-001	  3.46071E-001	  3.23918E-001	  3.33281E-001
  5.76000E-002	  3.28618E-001	  3.26671E-001	  3.17627E-001	  3.19059E-001
  6.40000E-002	  3.14095E-001	  3.21431E-001	  3.02465E-001	  3.03411E-001
  7.04000E-002	  2.95761E-001	  3.05086E-001	  2.94602E-001	  2.96892E-001
  7.68000E-002	  2.90032E-001	  2.92532E-001	  2.79121E-001	  2.84167E-001
  8.32000E-002	  2.72345E-001	  2.85226E-001	  2.61074E-001	  2.71496E-001
  8.96000E-002	  2.72897E-001	  2.67719E-001	  2.50428E-001	  2.58099E-001
  9.60000E-002	  2.52965E-001	  2.59519E-001	  2.45006E-001	  2.52717E-001
  1.02400E-001	  2.45342E-001	  2.49326E-001	  2.34059E-001	  2.47929E-001
  1.15200E-001	  2.22684E-001	  2.33643E-001	  2.19685E-001	  2.23713E-001
  1.28000E-001	  2.09087E-001	  2.13907E-001	  2.05912E-001	  2.07528E-001
  1.40800E-001	  1.95010E-001	  1.95850E-001	  1.90386E-001	  1.90577E-001
  1.53600E-001	  1.84639E-001	  1.87469E-001	  1.77625E-001	  1.73885E-001
  1.66400E-001	  1.71240E-001	  1.71947E-001	  1.59756E-001	  1.65327E-001
  1.79200E-001	  1.59964E-001	  1.60050E-001	  1.54400E-001	  1.57396E-001
  1.92000E-001	  1.50405E-001	  1.49129E-001	  1.43372E-001	  1.47254E-001
  2.04800E-001	  1.37640E-001	  1.41174E-001	  1.33412E-001	  1.37430E-001
  2.30400E-001	  1.22717E-001	  1.25630E-001	  1.17209E-001	  1.20448E-001
  2.56000E-001	  1.10858E-001	  1.13968E-001	  1.02939E-001	  1.10703E-001
  2.81600E-001	  1.00143E-001	  1.05407E-001	  9.64519E-002	  9.78908E-002
  3.07200E-001	  8.70204E-002	  1.01372E-001	  9.10145E-002	  9.25107E-002
  3.32800E-001	  8.14600E-002	  9.00382E-002	  8.44087E-002	  7.88458E-002
  3.58400E-001	  7.50312E-002	  8.23393E-002	  7.84856E-002	  7.38150E-002
  3.84000E-001	  6.64556E-002	  7.38952E-002	  6.99449E-002	  6.77487E-002
  4.09600E-001	  6.07007E-002	  6.68499E-002	  6.49636E-002	  6.26847E-002
  4.60800E-001	  4.67714E-002	  5.12788E-002	  5.27887E-002	  5.30368E-002
  5.12000E-001	  3.81585E-002	  4.54928E-002	  4.49746E-002	  4.85760E-002
  5.63200E-001	  3.93408E-002	  3.80210E-002	  3.81987E-002	  4.31528E-002
  6.14400E-001	  3.78981E-002	  2.85487E-002	  3.17854E-002	  3.75629E-002
  6.65600E-001	  3.81299E-002	  2.96758E-002	  2.37932E-002	  3.29143E-002
  7.16800E-001	  3.72117E-002	  2.73425E-002	  1.89738E-002	  3.05405E-002
  7.68000E-001	  3.02107E-002	  2.23346E-002	  1.50994E-002	  3.01531E-002
  8.19200E-001	  2.58618E-002	  2.04930E-002	  1.40506E-002	  2.97727E-002
  9.21600E-001	  2.32901E-002	  1.73390E-002	  1.27180E-002	  2.49775E-002
  1.02400E+000	  1.93043E-002	  1.41791E-002	  6.28711E-003	  1.63937E-002
  1.12640E+000	  1.48745E-002	  8.02738E-003	  6.53728E-003	  1.15727E-002
  1.22880E+000	  8.41675E-003	  7.49591E-003	  3.96225E-003	  5.96564E-003
  1.33120E+000	  2.09835E-003	  1.49366E-002	  4.28717E-003	  4.63567E-003
  1.43360E+000	  7.13732E-004	  1.55085E-002	 -2.95355E-003	  4.83038E-003
  1.53600E+000	  4.06127E-003	  1.31128E-002	 -4.64008E-003	  8.86769E-003
  1.63840E+000	  8.28498E-003	  1.17894E-002	 -7.33038E-003	  7.15536E-003
  1.84320E+000	  3.38885E-003	  5.98540E-003	 -5.59633E-003	  4.33833E-003
  2.04800E+000	 -2.96318E-003	  4.75923E-003	 -5.84902E-003	 -2.73059E-003
  2.25280E+000	 -5.20220E-003	  6.57154E-003	  5.18311E-004	 -6.53612E-003
  2.45760E+000	 -5.26240E-003	  3.22095E-003	 -2.90474E-003	 -2.36015E-003
  2.66240E+000	 -6.93335E-003	 -2.65744E-003	 -2.77792E-003	 -3.72164E-003
  2.86720E+000	 -5.44886E-003	 -8.46315E-003	 -2.02719E-003	 -2.28061E-003
  3.07200E+000	 -8.37369E-003	 -1.06942E-002	 -5.60203E-004	  7.55271E-004
  3.27680E+000	 -9.29641E-003	 -4.95875E-003	 -9.10498E-004	  1.42451E-003
  3.68640E+000	 -5.28903E-003	  1.48047E-003	  7.87966E-003	  1.02087E-003
  4.09600E+000	  1.90554E-003	 -2.80614E-003	  3.21549E-003	  1.43395E-004
  4.50560E+000	  7.94597E-003	 -9.12706E-003	 -6.45662E-003	  2.01207E-003
  4.91520E+000	  3.30566E-003	 -8.03645E-003	 -1.33395E-002	  2.73253E-003
  5.32480E+000	  3.83690E-003	 -1.07652E-003	 -1.39170E-002	  1.69882E-003
  5.73440E+000	  9.84923E-003	 -6.90707E-003	 -5.63279E-003	  6.04837E-003
  6.14400E+000	  1.83009E-002	 -9.14082E-003	 -5.61850E-003	  1.66772E-002
  6.55360E+000	  8.61013E-003	 -5.10344E-003	 -8.07516E-003	  3.04308E-003
  7.37280E+000	  5.48002E-003	  5.15137E-003	 -8.56678E-003	 -6.61598E-004
  8.19200E+000	 -5.96828E-003	 -2.59261E-003	 -6.57850E-003	  3.17607E-004
  9.01120E+000	 -6.96752E-003	 -3.12934E-003	 -5.67208E-004	  5.16725E-003
  9.83040E+000	  4.30088E-003	 -7.70723E-004	  4.74046E-003	  5.94937E-004
  1.06496E+001	 -8.19065E-004	 -5.89372E-003	  6.21981E-003	 -1.86368E-003
  1.14688E+001	  2.82451E-003	  7.89743E-003	  4.52078E-003	  3.95454E-003
  1.22880E+001	  9.30862E-003	 -1.31549E-003	  1.34120E-003	 -5.29183E-005
  1.31072E+001	  4.25702E-003	  9.67021E-004	 -3.95861E-003	 -2.83197E-003
  1.47456E+001	 -1.41136E-003	  1.87946E-003	 -3.75113E-004	 -7.19924E-003
  1.63840E+001	  1.84756E-003	 -5.19851E-003	 -9.04458E-004	 -3.28427E-003
  1.80224E+001	  2.12432E-003	 -3.88102E-003	 -3.86958E-003	 -4.27678E-003
  1.96608E+001	 -2.94996E-003	  5.47937E-004	 -1.51084E-003	  5.35457E-003
  2.12992E+001	 -4.54973E-003	  5.07695E-003	  1.12480E-003	  9.44204E-004
  2.29376E+001	 -3.36013E-003	  1.44635E-003	  3.97426E-003	  1.73253E-003
  2.45760E+001	  6.47302E-005	 -8.11299E-003	  2.72659E-003	 -1.75314E-003
  2.62144E+001	 -1.82991E-004	 -5.38830E-004	  3.35053E-003	  2.73260E-003
  2.94912E+001	 -2.91892E-003	  1.87714E-003	 -1.13031E-003	 -5.96403E-003
  3.27680E+001	  3.25208E-003	  2.08687E-004	  3.33566E-004	  3.21494E-003
  3.60448E+001	  3.14520E-003	  6.41533E-003	  6.11538E-005	  7.97697E-004
  3.93216E+001	 -2.56052E-003	  6.21397E-004	 -3.09882E-003	  4.69072E-003
  4.25984E+001	 -1.81590E-003	 -4.70775E-003	  2.44749E-003	 -6.81154E-003
  4.58752E+001	 -2.64620E-003	  2.71498E-004	  8.01540E-003	  3.06906E-003
  4.91520E+001	  1.52409E-003	  3.74550E-003	 -1.76212E-003	 -4.00137E-003
  5.24288E+001	  2.36986E-003	 -2.55427E-003	 -1.29781E-003	 -3.45910E-003
  5.89824E+001	 -2.38540E-003	  5.12119E-004	 -4.94458E-004	  2.93394E-003
  6.55360E+001	 -6.55482E-004	  7.87434E-004	  1.86625E-003	  2.38975E-003
  7.20896E+001	 -5.04641E-003	  8.59230E-004	 -3.15890E-003	  4.52172E-003
  7.86432E+001	 -4.73635E-004	 -2.12114E-003	  9.96338E-004	 -1.43116E-003
  8.51968E+001	 -2.76734E-003	  4.21937E-003	  2.65916E-003	 -4.54936E-003
  9.17504E+001	  7.57948E-004	 -3.37555E-003	  1.12240E-004	  2.29231E-004
  9.83040E+001	  1.20634E-004	 -3.25958E-005	 -8.83283E-004	 -3.46521E-003
  1.04858E+002	 -9.41429E-004	  3.03017E-004	 -2.79346E-003	 -1.60203E-003
  1.17965E+002	 -2.60876E-003	 -6.40637E-005	 -3.28668E-004	  2.56682E-005
  1.31072E+002	  1.25583E-003	 -2.10999E-003	  1.59192E-003	  3.58313E-003
  1.44179E+002	 -1.63038E-003	  8.60936E-004	  1.46710E-004	 -5.39562E-003
  1.57286E+002	 -3.04087E-003	 -2.75016E-003	  1.21131E-003	 -1.17193E-003
  1.70394E+002	  8.83512E-004	 -4.31814E-004	  1.81839E-003	 -4.42871E-003
  1.83501E+002	  1.82322E-003	  4.52841E-003	 -1.31715E-003	 -1.69297E-003
  1.96608E+002	  2.22105E-003	 -2.61967E-003	 -4.21410E-003	  3.17633E-004
  2.09715E+002	  6.57858E-004	 -1.04354E-004	 -2.43856E-003	 -3.65904E-004
  2.35930E+002	  1.01941E-003	 -1.45265E-003	 -6.43654E-004	  1.16475E-003
  2.62144E+002	 -1.23371E-003	  3.33137E-004	  7.42978E-004	 -1.72100E-003
  2.88358E+002	 -8.97468E-004	  2.12745E-004	  2.74884E-004	  1.44968E-003
  3.14573E+002	  1.18864E-003	  1.14006E-003	 -3.82648E-004	  1.05928E-003
  3.40787E+002	 -1.97457E-003	 -1.32381E-003	  1.32692E-003	  1.72798E-003
  3.67002E+002	  6.90069E-004	 -2.13595E-003	 -1.08588E-003	 -7.85771E-005
  3.93216E+002	  1.92595E-003	 -1.23146E-003	  2.54010E-003	  1.03929E-003

"Count Rate"
       0.01311	     120.01038	     158.30994	     111.69434	     155.86853
       0.02621	     136.56616	     131.45447	     131.22559	     148.84949
       0.03932	     120.62073	     140.30457	     164.48975	     134.04846
       0.05243	     180.58777	     114.74609	     119.93408	     117.26379
       0.06554	     165.02380	     112.99133	     137.25281	     139.69421
       0.07864	     145.79773	     149.61243	     118.25562	     124.43542
       0.09175	     149.38354	     144.04297	     141.37268	     115.43274
       0.10486	     118.17932	     131.14929	     126.41907	      94.14673
       0.11796	     130.15747	     155.48706	     131.83594	     118.71338
       0.13107	     114.44092	     153.35083	     123.06213	     122.68066
       0.14418	     146.86584	     133.74329	     126.41907	     126.57166
       0.15729	     111.54175	     131.83594	     121.00220	     134.20105
       0.17039	     150.22278	     130.31006	     102.15759	     128.55530
       0.18350	     120.16296	     131.22559	     147.78137	     116.42456
       0.19661	     124.05396	     147.32361	     152.28271	     157.08923
       0.20972	     136.56616	     119.78149	     129.39453	     116.42456
       0.22282	     154.95300	     123.97766	     140.22827	     148.23914
       0.23593	     124.96948	     130.61523	     141.14380	     137.71057
       0.24904	     130.23376	     113.06763	     140.07568	     134.73511
       0.26214	     147.78137	     134.50623	     153.80859	     156.70776
       0.27525	     144.19556	     134.04846	     140.68604	     127.86865
       0.28836	     136.03210	     139.69421	     124.51172	     172.80579
       0.30147	     142.89856	     110.39734	     111.08398	     145.41626
       0.31457	     136.71875	     138.62610	     131.30188	     140.68604
       0.32768	     109.10034	     135.72693	     143.96667	     147.47620
       0.34079	     128.55530	     123.29102	     143.73779	     119.32373
       0.35389	     105.89600	     165.71045	     158.30994	     155.25818
       0.36700	     117.18750	     145.11108	     161.74316	     111.08398
       0.38011	     117.26379	     160.90393	     132.44629	     134.65881
       0.39322	     120.16296	     132.67517	     136.03210	     148.16284
       0.40632	     118.63708	     117.49268	     154.26636	     112.76245
       0.41943	     127.79236	     154.87671	     140.07568	     139.84680
       0.43254	     203.93372	      97.65625	     128.17383	     120.84961
       0.44564	     149.61243	     157.69958	     126.19019	     132.67517
       0.45875	     114.28833	     131.37817	     129.85229	     108.64258
       0.47186	     143.58521	     129.47083	     124.51172	     156.40259
       0.48497	     161.89575	     153.80859	     144.80591	     138.24463
       0.49807	     161.66687	     137.55798	     137.71057	     145.95032
       0.51118	     113.98315	     117.95044	     129.54712	     123.97766
       0.52429	     137.32910	     129.69971	     156.09741	     111.84692
       0.53740	     139.77051	     139.99939	     118.33191	     139.16016
       0.55050	     153.80859	     149.76501	     144.27185	     147.55249
       0.56361	     117.95044	     168.60962	     115.50903	     112.83875
       0.57672	     137.86316	     105.74341	     147.62878	     130.31006
       0.58982	     122.60437	     130.92041	     134.27734	     131.68335
       0.60293	     116.88232	     126.87683	     120.23926	     188.59863
       0.61604	     143.81409	     120.01038	     144.57703	     145.49255
       0.62915	     162.27722	     173.56873	     121.91772	     141.60156
       0.64225	     117.11121	     131.91223	     137.10022	     110.47363
       0.65536	     152.58789	     110.32104	     140.45715	     100.09766
       0.66847	     138.85498	     158.69141	     147.47620	     167.00745
       0.68157	     137.48169	     158.23364	     129.92859	     135.04028
       0.69468	     108.10852	     119.01855	     153.88489	     120.23926
       0.70779	     124.96948	     139.46533	     128.70789	     139.54163
       0.72090	     151.59607	     106.43005	     115.12756	     125.42725
       0.73400	     151.51978	     125.73242	     150.90942	     151.51978
       0.74711	     142.05933	     118.94226	     189.59045	     149.45984
       0.76022	     165.40527	     112.07581	     157.85217	     113.06763
       0.77332	     111.00769	     119.55261	     139.61792	     140.15198
       0.78643	     126.72424	     133.89587	     134.81140	     124.58801
       0.79954	     133.05664	     126.87683	     148.31543	     131.83594
       0.81265	     127.56348	     125.50354	     128.47900	     115.58533
       0.82575	     153.80859	     115.20386	     163.11646	     131.45447
       0.83886	     129.77600	     133.51440	     137.32910	     139.16016
       0.85197	     147.17102	     124.74060	     142.13562	     140.68604
       0.86508	     130.69153	     127.33459	     125.42725	     139.23645
       0.87818	     120.62073	     129.92859	     141.06750	     155.71594
       0.89129	     134.96399	     157.54700	     135.04028	     131.75964
       0.90440	     124.66431	     118.25562	     141.37268	     142.21191
       0.91750	     126.11389	     130.31006	     131.91223	     133.59070
       0.93061	     155.94482	     161.89575	     133.20923	     108.64258

Monitor Diode	      1.00
