ALV-7004/USB-FAST
Date :	"3/14/2024"
Time :	"12:32:34 PM"
Samplename : 	""
SampMemo(0) : 	""
SampMemo(1) : 	""
SampMemo(2) : 	""
SampMemo(3) : 	""
SampMemo(4) : 	""
SampMemo(5) : 	""
SampMemo(6) : 	""
SampMemo(7) : 	""
SampMemo(8) : 	""
SampMemo(9) : 	""
Temperature [K] :	     298.16000
Viscosity [cp]  :	       0.89000
Refractive Index:	       1.33200
Wavelength [nm] :	       0.00000
Angle [°]       :	       0.00000
Duration [s]    :	         1
FloatDur [ms]   :	          944
Stop TP [ms]   :	      3212
Runs            :	         1
Mode            :	"A-CH0+1  A-CH2+3 "
MeanCR0 [kHz]   :	     146.70902
MeanCR1 [kHz]   :	     142.65272
MeanCR2 [kHz]   :	     139.96866
MeanCR3 [kHz]   :	     140.39039

"Correlation"
  3.12500E-006	 -1.00000E+000	 -1.00000E+000	 -1.00000E+000	 -1.00000E+000
  6.25000E-006	 -1.00000E+000	 -1.00000E+000	 -1.00000E+000	 -1.00000E+000
  9.37500E-006	 -1.00000E+000	 -1.00000E+000	 -1.00000E+000	 -1.00000E+000
  1.25000E-005	 -1.00000E+000	 -1.00000E+000	 -1.00000E+000	 -1.00000E+000
  1.56250E-005	 -1.00000E+000	 -1.00000E+000	 -1.00000E+000	 -1.00000E+000
  1.87500E-005	 -1.00000E+000	 -1.00000E+000	 -1.00000E+000	 -1.00000E+000
  2.18750E-005	 -9.36984E-001	 -4.66791E-001	 -2.90374E-001	 -9.65592E-001
  2.50000E-005	  5.96332E+000	  5.66511E+000	  5.61164E+000	  9.52893E+000
  2.81250E-005	  1.77272E+000	  1.01620E+000	  1.31927E+000	  3.97199E+000
  3.12500E-005	  1.06379E+000	  6.16289E-001	  1.02503E+000	  2.92254E+000
  3.43750E-005	  7.01444E-001	  9.66208E-001	  6.09640E-001	  1.66664E+000
  3.75000E-005	  6.69936E-001	  8.82894E-001	  6.26948E-001	  1.71825E+000
  4.06250E-005	  3.86362E-001	  7.32929E-001	  6.09640E-001	  1.37417E+000
  4.37500E-005	  4.02116E-001	  5.32976E-001	  4.19253E-001	  1.18492E+000
  4.68750E-005	  6.38428E-001	  7.16266E-001	  7.13488E-001	  1.58062E+000
  5.00000E-005	  6.77813E-001	  5.07981E-001	  5.49062E-001	  1.26234E+000
  5.62500E-005	  6.69936E-001	  5.74632E-001	  8.34644E-001	  9.35465E-001
  6.25000E-005	  7.01444E-001	  4.82987E-001	  6.00986E-001	  1.07310E+000
  6.87500E-005	  5.36026E-001	  4.32999E-001	  4.01945E-001	  7.54821E-001
  7.50000E-005	  6.30550E-001	  5.16313E-001	  5.05793E-001	  8.06434E-001
  8.12500E-005	  3.62731E-001	  6.49615E-001	  6.35602E-001	  5.74178E-001
  8.75000E-005	  6.54182E-001	  4.57993E-001	  2.63481E-001	  8.06434E-001
  9.37500E-005	  5.91165E-001	  6.82940E-001	  3.50021E-001	  7.20413E-001
  1.00000E-004	  4.53317E-001	  6.53780E-001	  5.62043E-001	  6.98908E-001
  1.12500E-004	  3.46976E-001	  5.32975E-001	  4.62523E-001	  4.66652E-001
  1.25000E-004	  3.82423E-001	  5.24644E-001	  3.67329E-001	  6.38693E-001
  1.37500E-004	  7.09321E-001	  5.32975E-001	  4.19253E-001	  4.62351E-001
  1.50000E-004	  4.92702E-001	  5.78798E-001	  4.66850E-001	  6.51596E-001
  1.62500E-004	  5.32087E-001	  4.41330E-001	  5.57716E-001	  5.56974E-001
  1.75000E-004	  5.43903E-001	  4.87153E-001	  4.23580E-001	  5.44070E-001
  1.87500E-004	  4.25747E-001	  4.62159E-001	  5.05792E-001	  4.92458E-001
  2.00000E-004	  4.13931E-001	  5.16312E-001	  6.16130E-001	  5.91381E-001
  2.25000E-004	  5.14363E-001	  5.45472E-001	  5.03629E-001	  4.98909E-001
  2.50000E-004	  4.92702E-001	  5.78798E-001	  4.71176E-001	  4.38695E-001
  2.75000E-004	  5.02548E-001	  5.89212E-001	  4.84157E-001	  4.73103E-001
  3.00000E-004	  4.51347E-001	  4.26750E-001	  6.09640E-001	  4.77404E-001
  3.25000E-004	  5.89195E-001	  5.51721E-001	  5.20937E-001	  4.45146E-001
  3.50000E-004	  6.04949E-001	  5.39223E-001	  4.12762E-001	  4.34394E-001
  3.75000E-004	  5.24210E-001	  5.51721E-001	  5.10119E-001	  5.65575E-001
  4.00000E-004	  4.99593E-001	  5.63176E-001	  5.11200E-001	  4.86006E-001
  4.50000E-004	  5.25194E-001	  5.28809E-001	  5.03628E-001	  4.78479E-001
  5.00000E-004	  5.02547E-001	  4.95483E-001	  4.93892E-001	  5.04285E-001
  5.50000E-004	  4.32638E-001	  4.96525E-001	  4.83075E-001	  5.20414E-001
  6.00000E-004	  4.81870E-001	  5.06939E-001	  5.41489E-001	  4.81705E-001
  6.50000E-004	  5.02547E-001	  5.16312E-001	  5.27426E-001	  4.79554E-001
  7.00000E-004	  5.67533E-001	  5.07980E-001	  5.49061E-001	  5.01059E-001
  7.50000E-004	  5.11409E-001	  4.84027E-001	  5.43653E-001	  4.89231E-001
  8.00000E-004	  4.84330E-001	  5.21517E-001	  4.91187E-001	  4.86004E-001
  9.00000E-004	  4.75961E-001	  4.70488E-001	  5.14444E-001	  4.89230E-001
  1.00000E-003	  4.66607E-001	  5.40784E-001	  4.93350E-001	  4.89768E-001
  1.10000E-003	  4.67592E-001	  4.72571E-001	  4.37099E-001	  5.22025E-001
  1.20000E-003	  4.99100E-001	  4.86630E-001	  4.79828E-001	  5.05359E-001
  1.30000E-003	  4.54791E-001	  4.43931E-001	  5.48519E-001	  4.62886E-001
  1.40000E-003	  5.64578E-001	  4.87671E-001	  4.92268E-001	  4.55897E-001
  1.50000E-003	  5.06484E-001	  5.02251E-001	  4.58193E-001	  4.21489E-001
  1.60000E-003	  4.91969E-001	  4.84024E-001	  4.60354E-001	  4.63690E-001
  1.80000E-003	  5.03047E-001	  4.97302E-001	  4.96593E-001	  4.56970E-001
  2.00000E-003	  4.63415E-001	  5.11361E-001	  4.89832E-001	  4.73368E-001
  2.20000E-003	  4.81138E-001	  4.92876E-001	  5.03083E-001	  4.61271E-001
  2.40000E-003	  5.02308E-001	  5.16308E-001	  4.86857E-001	  4.45142E-001
  2.60000E-003	  4.53333E-001	  5.06675E-001	  4.70631E-001	  5.00787E-001
  2.80000E-003	  5.06257E-001	  4.51219E-001	  4.81178E-001	  4.81432E-001
  3.00000E-003	  5.17335E-001	  4.86107E-001	  4.83071E-001	  4.88690E-001
  3.20000E-003	  4.80047E-001	  5.05238E-001	  4.62400E-001	  5.02798E-001
  3.60000E-003	  4.83247E-001	  4.90267E-001	  4.79978E-001	  4.88954E-001
  4.00000E-003	  4.87555E-001	  4.81806E-001	  4.81736E-001	  4.94733E-001
  4.40000E-003	  4.69698E-001	  4.92090E-001	  4.86198E-001	  4.76454E-001
  4.80000E-003	  4.89513E-001	  4.86492E-001	  4.56585E-001	  4.60325E-001
  5.20000E-003	  4.90252E-001	  4.78161E-001	  4.61318E-001	  4.69196E-001
  5.60000E-003	  4.88406E-001	  4.70090E-001	  4.84305E-001	  4.95002E-001
  6.00000E-003	  4.61697E-001	  4.56681E-001	  4.79573E-001	  4.70002E-001
  6.40000E-003	  4.78498E-001	  4.58754E-001	  4.70322E-001	  4.71068E-001
  7.20000E-003	  4.81637E-001	  4.74441E-001	  4.93152E-001	  4.76242E-001
  8.00000E-003	  4.83299E-001	  4.72423E-001	  4.94640E-001	  4.72681E-001
  8.80000E-003	  4.66190E-001	  4.76458E-001	  4.64689E-001	  4.62667E-001
  9.60000E-003	  4.65883E-001	  4.78020E-001	  4.54074E-001	  4.52318E-001
  1.04000E-002	  4.61339E-001	  4.65328E-001	  4.58671E-001	  4.56283E-001
  1.12000E-002	  4.68909E-001	  4.52181E-001	  4.64824E-001	  4.60315E-001
  1.20000E-002	  4.62509E-001	  4.51530E-001	  4.82132E-001	  4.49160E-001
  1.28000E-002	  4.60253E-001	  4.57541E-001	  4.73086E-001	  4.49140E-001
  1.44000E-002	  4.46930E-001	  4.44730E-001	  4.44633E-001	  4.52466E-001
  1.60000E-002	  4.58499E-001	  4.50555E-001	  4.47236E-001	  4.39463E-001
  1.76000E-002	  4.34571E-001	  4.51922E-001	  4.30130E-001	  4.40841E-001
  1.92000E-002	  4.45925E-001	  4.43103E-001	  4.41489E-001	  4.31298E-001
  2.08000E-002	  4.32765E-001	  4.42094E-001	  4.40419E-001	  4.36069E-001
  2.24000E-002	  4.28858E-001	  4.35097E-001	  4.25680E-001	  4.26594E-001
  2.40000E-002	  4.22201E-001	  4.31615E-001	  4.18311E-001	  4.03174E-001
  2.56000E-002	  4.26809E-001	  4.25658E-001	  4.24563E-001	  4.06093E-001
  2.88000E-002	  4.12859E-001	  4.09945E-001	  4.12376E-001	  4.07420E-001
  3.20000E-002	  3.94966E-001	  4.13801E-001	  3.98770E-001	  3.94988E-001
  3.52000E-002	  3.93776E-001	  3.93087E-001	  3.98888E-001	  3.88856E-001
  3.84000E-002	  3.82278E-001	  3.87799E-001	  3.84521E-001	  3.80960E-001
  4.16000E-002	  3.73651E-001	  3.77379E-001	  3.71320E-001	  3.64882E-001
  4.48000E-002	  3.71061E-001	  3.72465E-001	  3.72460E-001	  3.60245E-001
  4.80000E-002	  3.59167E-001	  3.73425E-001	  3.64928E-001	  3.49151E-001
  5.12000E-002	  3.50607E-001	  3.58498E-001	  3.54898E-001	  3.37170E-001
  5.76000E-002	  3.50078E-001	  3.37509E-001	  3.38798E-001	  3.27318E-001
  6.40000E-002	  3.26225E-001	  3.29407E-001	  3.25202E-001	  3.10814E-001
  7.04000E-002	  3.11939E-001	  3.16192E-001	  3.12173E-001	  3.02473E-001
  7.68000E-002	  3.00994E-001	  3.05064E-001	  3.01607E-001	  2.89495E-001
  8.32000E-002	  2.88834E-001	  2.93014E-001	  2.83294E-001	  2.75510E-001
  8.96000E-002	  2.75872E-001	  2.80370E-001	  2.75881E-001	  2.67909E-001
  9.60000E-002	  2.64461E-001	  2.67914E-001	  2.67828E-001	  2.55468E-001
  1.02400E-001	  2.54547E-001	  2.54474E-001	  2.57153E-001	  2.44599E-001
  1.15200E-001	  2.39929E-001	  2.36336E-001	  2.34563E-001	  2.28620E-001
  1.28000E-001	  2.19856E-001	  2.23577E-001	  2.21396E-001	  2.11818E-001
  1.40800E-001	  2.03690E-001	  2.02668E-001	  1.99734E-001	  1.95152E-001
  1.53600E-001	  1.84163E-001	  1.89719E-001	  1.88244E-001	  1.85279E-001
  1.66400E-001	  1.70764E-001	  1.82880E-001	  1.75515E-001	  1.64427E-001
  1.79200E-001	  1.60002E-001	  1.67347E-001	  1.61415E-001	  1.59653E-001
  1.92000E-001	  1.49692E-001	  1.55530E-001	  1.51081E-001	  1.49334E-001
  2.04800E-001	  1.41739E-001	  1.44375E-001	  1.41980E-001	  1.42471E-001
  2.30400E-001	  1.24579E-001	  1.27318E-001	  1.21893E-001	  1.22683E-001
  2.56000E-001	  1.15182E-001	  1.14762E-001	  1.07851E-001	  1.08518E-001
  2.81600E-001	  1.02866E-001	  1.02053E-001	  9.21229E-002	  1.02598E-001
  3.07200E-001	  9.22329E-002	  9.04113E-002	  8.24225E-002	  9.48692E-002
  3.32800E-001	  8.36949E-002	  7.89118E-002	  7.22921E-002	  8.55931E-002
  3.58400E-001	  7.44736E-002	  7.39266E-002	  6.41705E-002	  7.98331E-002
  3.84000E-001	  6.81444E-002	  6.40650E-002	  5.98299E-002	  7.19005E-002
  4.09600E-001	  6.10185E-002	  5.77475E-002	  5.51441E-002	  6.48838E-002
  4.60800E-001	  4.77531E-002	  5.11647E-002	  4.48668E-002	  5.71624E-002
  5.12000E-001	  3.75425E-002	  4.15875E-002	  4.00845E-002	  4.39418E-002
  5.63200E-001	  2.89742E-002	  3.28575E-002	  3.57929E-002	  3.72779E-002
  6.14400E-001	  2.38104E-002	  2.28151E-002	  2.83926E-002	  3.19003E-002
  6.65600E-001	  1.83332E-002	  2.04553E-002	  2.44785E-002	  2.78562E-002
  7.16800E-001	  1.51472E-002	  1.58778E-002	  1.80845E-002	  2.48778E-002
  7.68000E-001	  1.26030E-002	  1.65222E-002	  1.44041E-002	  2.41269E-002
  8.19200E-001	  1.19200E-002	  1.36883E-002	  7.95619E-003	  2.42219E-002
  9.21600E-001	  1.98187E-003	  6.37233E-003	  9.93588E-004	  1.89930E-002
  1.02400E+000	  1.10194E-003	  8.13511E-003	 -3.32325E-003	  1.79031E-002
  1.12640E+000	 -7.19701E-003	  7.31122E-003	 -1.72047E-003	  1.40271E-002
  1.22880E+000	 -1.22680E-002	  5.92384E-003	  7.37660E-003	  1.25474E-002
  1.33120E+000	 -1.38696E-002	  6.40890E-003	  1.00577E-003	  1.10530E-002
  1.43360E+000	 -1.60025E-002	  4.18655E-003	  4.34674E-003	  9.74926E-003
  1.53600E+000	 -1.84414E-002	  8.19533E-003	  5.07088E-003	  7.21014E-003
  1.63840E+000	 -1.73870E-002	  1.05660E-002	  6.74228E-003	  7.08472E-003
  1.84320E+000	 -9.33400E-003	  8.76363E-003	  2.81877E-003	  1.37187E-002
  2.04800E+000	 -5.53235E-003	  4.93471E-003	 -1.53600E-003	  1.35410E-002
  2.25280E+000	 -8.04775E-003	 -3.42837E-003	 -1.57103E-003	  6.85661E-003
  2.45760E+000	 -8.04367E-003	 -8.56570E-003	 -3.21674E-003	  3.16063E-003
  2.66240E+000	 -2.01272E-003	 -3.12928E-003	  4.27367E-004	  6.57486E-003
  2.86720E+000	  8.54221E-003	 -5.68373E-003	  3.56179E-004	  4.02066E-003
  3.07200E+000	  7.85970E-003	  5.05121E-004	  2.72812E-003	  1.28172E-003
  3.27680E+000	  1.07659E-002	  4.33625E-003	  2.68191E-003	 -3.86455E-003
  3.68640E+000	  1.01479E-002	  4.55913E-003	  7.96974E-003	 -2.96641E-004
  4.09600E+000	  1.60079E-003	 -1.09245E-005	  4.27511E-003	  7.47713E-004
  4.50560E+000	  3.94117E-003	  6.96468E-003	  1.68448E-003	 -4.55360E-003
  4.91520E+000	  2.82568E-003	  1.50267E-004	  7.48666E-003	 -7.07121E-003
  5.32480E+000	 -4.17420E-004	 -7.92755E-004	  2.50609E-003	 -7.31793E-003
  5.73440E+000	  4.98074E-004	 -8.07243E-003	  3.05797E-003	  2.42522E-003
  6.14400E+000	 -3.88912E-003	 -6.95508E-004	 -9.78512E-003	  1.87418E-003
  6.55360E+000	 -5.76003E-004	 -2.37739E-003	 -5.04943E-003	 -5.41114E-003
  7.37280E+000	  1.25141E-003	 -1.64129E-003	 -7.55367E-004	 -3.76213E-004
  8.19200E+000	  4.78820E-003	 -1.34631E-003	  3.16804E-003	  4.59077E-003
  9.01120E+000	  4.96461E-003	  6.89768E-004	 -1.70608E-004	  1.92004E-003
  9.83040E+000	  1.04349E-003	  4.56086E-003	  8.63564E-003	  1.47142E-003
  1.06496E+001	 -4.81922E-004	 -2.07357E-003	 -1.86330E-003	  1.41963E-002
  1.14688E+001	 -2.11512E-003	 -2.72522E-003	  4.40990E-003	  1.01804E-002
  1.22880E+001	  6.06161E-003	 -1.01894E-003	 -1.65210E-003	  1.09937E-002
  1.31072E+001	 -4.50382E-004	  4.21159E-003	 -9.18781E-004	  1.03763E-002
  1.47456E+001	 -3.87305E-003	  1.00663E-002	  5.40392E-003	  7.80626E-003
  1.63840E+001	  1.84514E-003	  9.49892E-004	 -4.31197E-004	  4.40219E-003
  1.80224E+001	  2.51299E-004	 -8.30964E-004	  5.69207E-003	 -6.93806E-003
  1.96608E+001	 -9.68000E-003	  9.12342E-003	  3.79893E-003	 -3.71455E-004
  2.12992E+001	  5.50593E-003	  1.50475E-003	  2.32840E-004	  4.16682E-003
  2.29376E+001	  3.83612E-003	  1.89154E-003	  1.83729E-003	  7.49687E-004
  2.45760E+001	  1.11617E-003	 -3.27510E-003	  3.35366E-003	 -3.41645E-003
  2.62144E+001	  7.19429E-004	 -8.42852E-003	  2.48741E-003	  1.28012E-003
  2.94912E+001	  7.36802E-003	 -4.07107E-003	  1.74120E-003	  9.72918E-003
  3.27680E+001	  1.34904E-004	 -1.68925E-003	  1.89851E-003	  6.28659E-003
  3.60448E+001	 -9.62802E-004	  5.35842E-003	 -1.37315E-003	 -1.18638E-003
  3.93216E+001	  2.37081E-003	 -3.34779E-004	  7.20545E-003	  7.33101E-003
  4.25984E+001	 -6.32306E-003	 -2.68276E-003	 -7.69032E-004	  6.82458E-003
  4.58752E+001	 -3.40623E-003	 -3.67416E-003	 -4.27740E-003	 -2.01175E-003
  4.91520E+001	 -4.19089E-003	 -1.78747E-003	 -2.30870E-003	 -2.56829E-003
  5.24288E+001	 -3.33425E-003	 -4.78217E-004	  2.51784E-003	 -1.83820E-003
  5.89824E+001	 -3.05768E-003	 -6.88781E-004	  2.57056E-003	 -1.45199E-003
  6.55360E+001	  3.83020E-004	 -1.36334E-003	  4.40906E-004	  1.52423E-003
  7.20896E+001	 -6.29896E-003	  5.95505E-003	  2.96768E-003	  6.42473E-003
  7.86432E+001	 -3.30030E-004	  7.71360E-004	  1.72549E-003	  4.35972E-003
  8.51968E+001	 -1.16449E-003	  5.32037E-004	  1.11815E-003	  8.64120E-004
  9.17504E+001	 -2.51467E-003	  6.95199E-003	  3.89218E-003	  3.77772E-003
  9.83040E+001	  3.82078E-003	 -5.03026E-003	 -3.52666E-003	  7.78706E-003
  1.04858E+002	  9.50070E-004	  1.26390E-003	  4.79153E-004	  5.83169E-003
  1.17965E+002	  2.24183E-004	 -1.94624E-003	  2.58586E-003	  8.51804E-004
  1.31072E+002	  2.27169E-003	 -3.60699E-003	 -6.28348E-004	  5.86410E-004
  1.44179E+002	  8.29827E-004	  1.12659E-004	  6.81820E-004	 -2.92149E-003
  1.57286E+002	  3.65347E-004	  3.31057E-003	 -8.13226E-004	 -1.92373E-003
  1.70394E+002	 -1.70704E-003	 -3.24627E-004	 -8.70932E-004	  3.59079E-003
  1.83501E+002	 -7.84309E-004	  2.01591E-004	  9.67102E-004	 -9.11424E-004
  1.96608E+002	 -8.28394E-004	 -1.69570E-003	  2.50002E-003	  4.97817E-003
  2.09715E+002	 -1.26183E-003	 -2.59427E-003	  1.33333E-003	  6.97800E-005
  2.35930E+002	 -1.23562E-003	  7.90882E-004	 -9.25161E-004	 -3.78646E-003
  2.62144E+002	  5.90020E-004	 -3.22458E-004	 -8.23206E-004	 -4.89435E-003
  2.88358E+002	  2.08206E-003	 -3.18183E-003	  7.61601E-004	 -1.59045E-003
  3.14573E+002	  1.71698E-003	 -1.79229E-003	 -2.68789E-003	 -1.75551E-003
  3.40787E+002	  8.11826E-004	 -4.11037E-004	  1.12299E-003	 -3.00445E-003
  3.67002E+002	 -6.09109E-004	 -2.98285E-003	 -1.27764E-004	 -3.35884E-003
  3.93216E+002	 -3.21499E-003	 -7.74953E-004	 -5.21152E-003	  8.72022E-004

"Count Rate"
       0.01311	     139.00757	     132.82776	     114.59351	     137.17651
       0.02621	     141.14380	     134.50623	     164.64233	     164.64233
       0.03932	     128.47900	     160.29358	     140.15198	     120.31555
       0.05243	     138.39722	     162.20093	     121.23108	     187.83569
       0.06554	     152.58789	     125.73242	     141.22009	     155.48706
       0.07864	     121.53625	     133.36182	     143.12744	     153.19824
       0.09175	     146.10291	     141.29639	     152.20642	     169.14368
       0.10486	     185.39429	     140.22827	     160.98022	     130.76782
       0.11796	     124.51172	     147.24731	     134.88770	     115.58533
       0.13107	     133.20923	     119.32373	     108.26111	     144.11926
       0.14418	     146.71326	     116.04309	     169.75403	     147.47620
       0.15729	      97.19849	     115.58533	     135.57434	     148.16284
       0.17039	     133.97217	     139.08386	     116.50085	     132.59888
       0.18350	     148.46802	     146.78955	     136.33728	     182.34253
       0.19661	     147.39990	     151.13831	     113.22021	     147.17102
       0.20972	     154.80042	     138.47351	     132.37000	     139.38904
       0.22282	     115.28015	     130.69153	     167.92297	     164.56604
       0.23593	     153.88489	     117.34009	     162.50610	     142.82227
       0.24904	     138.70239	     116.19568	     129.24194	     155.63965
       0.26214	     150.07019	     141.44897	     159.53064	     141.14380
       0.27525	     132.90405	     136.33728	     161.51428	     155.79224
       0.28836	     152.43530	     124.43542	     151.59607	     191.42151
       0.30147	     161.13281	     151.59607	     135.95581	     141.75415
       0.31457	     142.74597	     117.56897	     134.12476	     121.15479
       0.32768	     185.08911	     119.85779	     150.22278	     143.28003
       0.34079	     134.65881	     136.94763	     168.15186	     155.25818
       0.35389	     136.79504	     150.22278	     133.36182	     124.96948
       0.36700	     149.68872	     129.77600	     155.41077	     150.60425
       0.38011	     160.21729	     120.39185	     129.16565	     146.33179
       0.39322	     148.08655	     186.69128	     117.95044	     146.40808
       0.40632	     128.70789	     146.02661	     114.97498	     116.57715
       0.41943	     157.85217	     147.39990	     133.28552	     117.87415
       0.43254	     133.59070	     143.20374	     143.89038	     111.23657
       0.44564	     139.77051	     170.13550	     168.38074	     134.27734
       0.45875	     146.25549	     155.10559	     141.22009	     158.46252
       0.47186	     126.19019	     138.93127	     122.22290	     137.86316
       0.48497	     164.71863	     151.59607	     143.66150	     132.06482
       0.49807	     123.51990	     135.87952	     110.32104	     143.35632
       0.51118	     127.94495	     138.54980	     135.42175	     114.36462
       0.52429	     165.93933	     122.29919	     136.87134	     105.36194
       0.53740	     156.47888	     145.33997	     149.45984	     117.11121
       0.55050	     172.42432	     166.62598	     112.68616	     117.49268
       0.56361	     154.34265	     132.06482	     134.12476	     142.97485
       0.57672	     133.97217	     126.80054	     140.30457	     130.38635
       0.58982	     142.36450	     137.86316	     139.54163	     154.49524
       0.60293	     109.32922	     177.45972	     127.79236	     112.38098
       0.61604	     121.53625	     174.86572	     112.83875	     111.69434
       0.62915	     159.37805	     131.22559	     136.71875	     135.11658
       0.64225	     136.64246	     125.04578	     123.21472	     125.96130
       0.65536	     185.01282	     152.51160	     112.76245	     131.37817
       0.66847	     165.10010	     126.57166	     121.07849	     178.22266
       0.68157	     161.28540	     113.83057	     112.30469	     130.31006
       0.69468	     144.34814	     165.63416	     121.23108	     137.63428
       0.70779	     140.45715	     163.65051	     137.40540	     123.97766
       0.72090	     106.73523	     131.60706	     125.73242	     130.31006
       0.73400	     134.96399	     140.15198	     120.77332	     142.74597
       0.74711	     139.46533	     115.12756	     134.58252	     140.07568
       0.76022	     136.10840	     125.80872	     130.69153	     161.81946
       0.77332	     125.04578	     137.48169	     139.92310	     120.62073
       0.78643	     147.55249	     152.20642	     147.47620	     137.55798
       0.79954	     166.93115	     132.75146	     160.52246	     159.98840
       0.81265	     143.89038	     137.78687	     134.65881	     130.53894
       0.82575	     152.43530	     118.48450	     124.20654	     123.51990
       0.83886	     156.17371	     145.03479	     145.79773	     153.42712
       0.85197	     144.72961	     160.29358	     141.75415	     108.03223
       0.86508	     140.38086	     151.51978	     133.97217	     113.37280
       0.87818	     152.58789	     173.33984	     134.42993	     128.09753
       0.89129	     163.19275	     150.75684	     166.32080	     126.34277
       0.90440	     164.48975	     127.10571	     166.62598	     116.57715
       0.91750	     152.20642	     139.08386	     154.26636	     144.42444
       0.93061	     139.92310	     170.74585	     173.87390	     139.08386

Monitor Diode	      1.00
