ALV-7004/USB-FAST
Date :	"3/14/2024"
Time :	"12:35:40 PM"
Samplename : 	""
SampMemo(0) : 	""
SampMemo(1) : 	""
SampMemo(2) : 	""
SampMemo(3) : 	""
SampMemo(4) : 	""
SampMemo(5) : 	""
SampMemo(6) : 	""
SampMemo(7) : 	""
SampMemo(8) : 	""
SampMemo(9) : 	""
Temperature [K] :	     298.16000
Viscosity [cp]  :	       0.89000
Refractive Index:	       1.33200
Wavelength [nm] :	       0.00000
Angle [°]       :	       0.00000
Duration [s]    :	         1
FloatDur [ms]   :	          944
Stop TP [ms]   :	      3919
Runs            :	         1
Mode            :	"A-CH0+1  A-CH2+3 "
MeanCR0 [kHz]   :	     122.55139
MeanCR1 [kHz]   :	     120.06548
MeanCR2 [kHz]   :	     116.70430
MeanCR3 [kHz]   :	     114.75563

"Correlation"
  3.12500E-006	 -1.00000E+000	 -1.00000E+000	 -1.00000E+000	 -1.00000E+000
  6.25000E-006	 -1.00000E+000	 -1.00000E+000	 -1.00000E+000	 -1.00000E+000
  9.37500E-006	 -1.00000E+000	 -1.00000E+000	 -1.00000E+000	 -1.00000E+000
  1.25000E-005	 -1.00000E+000	 -1.00000E+000	 -1.00000E+000	 -1.00000E+000
  1.56250E-005	 -1.00000E+000	 -1.00000E+000	 -1.00000E+000	 -1.00000E+000
  1.87500E-005	 -1.00000E+000	 -1.00000E+000	 -1.00000E+000	 -1.00000E+000
  2.18750E-005	 -9.77423E-001	 -3.17867E-001	 -3.52698E-001	 -9.22753E-001
  2.50000E-005	  5.61513E+000	  5.98599E+000	  6.26970E+000	  1.22092E+001
  2.81250E-005	  2.00277E+000	  1.37571E+000	  1.29045E+000	  4.69052E+000
  3.12500E-005	  1.21257E+000	  1.16401E+000	  9.17011E-001	  2.73360E+000
  3.43750E-005	  1.12226E+000	  8.34703E-001	  5.68463E-001	  2.24437E+000
  3.75000E-005	  1.03195E+000	  3.40745E-001	  7.92529E-001	  1.96113E+000
  4.06250E-005	  7.83603E-001	  8.81747E-001	  9.41907E-001	  1.13716E+000
  4.37500E-005	  7.15871E-001	  5.05398E-001	  4.43982E-001	  1.24016E+000
  4.68750E-005	  6.70717E-001	  6.46529E-001	  6.43152E-001	  2.03838E+000
  5.00000E-005	  7.04582E-001	  5.64202E-001	  5.68463E-001	  1.67789E+000
  5.62500E-005	  5.35253E-001	  5.40680E-001	  5.06222E-001	  1.13716E+000
  6.25000E-005	  8.06180E-001	  7.05333E-001	  2.44812E-001	  9.82669E-001
  6.87500E-005	  7.38448E-001	  7.99420E-001	  5.18671E-001	  9.82669E-001
  7.50000E-005	  4.90098E-001	  6.34768E-001	  6.55600E-001	  8.28175E-001
  8.12500E-005	  3.54635E-001	  4.34832E-001	  7.42737E-001	  7.50929E-001
  8.75000E-005	  6.02985E-001	  6.11246E-001	  7.55185E-001	  6.09309E-001
  9.37500E-005	  7.94891E-001	  3.87788E-001	  4.81326E-001	  6.22184E-001
  1.00000E-004	  6.14273E-001	  6.17126E-001	  6.61824E-001	  6.09309E-001
  1.12500E-004	  5.46541E-001	  4.87756E-001	  5.99583E-001	  6.15746E-001
  1.25000E-004	  4.33655E-001	  5.05397E-001	  4.81326E-001	  5.38500E-001
  1.37500E-004	  4.44944E-001	  5.87724E-001	  5.99583E-001	  6.28621E-001
  1.50000E-004	  6.14273E-001	  4.17190E-001	  5.24895E-001	  5.77123E-001
  1.62500E-004	  5.29608E-001	  3.87788E-001	  3.87965E-001	  5.19188E-001
  1.75000E-004	  3.37702E-001	  6.23006E-001	  5.87135E-001	  5.77123E-001
  1.87500E-004	  4.78810E-001	  5.52441E-001	  6.12031E-001	  5.83560E-001
  2.00000E-004	  5.21142E-001	  5.93604E-001	  5.99583E-001	  5.09532E-001
  2.25000E-004	  5.55008E-001	  5.17158E-001	  4.93774E-001	  3.74350E-001
  2.50000E-004	  4.81632E-001	  5.02457E-001	  4.90662E-001	  3.90443E-001
  2.75000E-004	  4.84454E-001	  4.64234E-001	  4.87550E-001	  5.09532E-001
  3.00000E-004	  5.46541E-001	  5.14218E-001	  5.15558E-001	  4.51597E-001
  3.25000E-004	  4.11078E-001	  4.73054E-001	  4.50206E-001	  5.83560E-001
  3.50000E-004	  5.07031E-001	  4.11310E-001	  5.34230E-001	  6.35058E-001
  3.75000E-004	  5.04209E-001	  5.67142E-001	  5.59126E-001	  5.93216E-001
  4.00000E-004	  5.62062E-001	  5.08337E-001	  5.07777E-001	  5.15968E-001
  4.50000E-004	  5.21141E-001	  5.02456E-001	  5.26450E-001	  5.07922E-001
  5.00000E-004	  5.09852E-001	  5.23038E-001	  5.06221E-001	  5.46545E-001
  5.50000E-004	  5.52185E-001	  6.50938E-001	  4.61097E-001	  5.06312E-001
  6.00000E-004	  4.95742E-001	  5.49500E-001	  4.54873E-001	  5.19187E-001
  6.50000E-004	  4.53409E-001	  5.50970E-001	  6.44707E-001	  5.20796E-001
  7.00000E-004	  5.31019E-001	  4.95106E-001	  4.70433E-001	  4.80563E-001
  7.50000E-004	  5.36663E-001	  4.31891E-001	  5.03109E-001	  4.80563E-001
  8.00000E-004	  5.47950E-001	  5.24507E-001	  4.74322E-001	  4.95851E-001
  9.00000E-004	  5.13379E-001	  5.00250E-001	  4.79768E-001	  5.39302E-001
  1.00000E-003	  4.55525E-001	  4.88489E-001	  4.84436E-001	  4.74930E-001
  1.10000E-003	  5.55006E-001	  5.12746E-001	  4.75100E-001	  4.47571E-001
  1.20000E-003	  5.33134E-001	  5.33327E-001	  4.75100E-001	  4.93437E-001
  1.30000E-003	  4.75985E-001	  4.67907E-001	  4.73544E-001	  5.29646E-001
  1.40000E-003	  4.57641E-001	  4.78933E-001	  4.60318E-001	  4.96655E-001
  1.50000E-003	  4.42120E-001	  4.62762E-001	  4.96884E-001	  4.40330E-001
  1.60000E-003	  4.64001E-001	  4.92162E-001	  4.87934E-001	  4.75745E-001
  1.80000E-003	  5.11978E-001	  4.94734E-001	  4.57981E-001	  4.77757E-001
  2.00000E-003	  4.87284E-001	  5.64197E-001	  4.76264E-001	  4.66089E-001
  2.20000E-003	  4.95398E-001	  5.35897E-001	  4.69651E-001	  4.76550E-001
  2.40000E-003	  4.72115E-001	  5.12008E-001	  5.23334E-001	  4.71722E-001
  2.60000E-003	  5.16917E-001	  4.91426E-001	  4.94158E-001	  4.52008E-001
  2.80000E-003	  4.95398E-001	  5.35162E-001	  4.61093E-001	  4.94655E-001
  3.00000E-003	  4.53771E-001	  5.06128E-001	  4.78987E-001	  5.27646E-001
  3.20000E-003	  5.10046E-001	  5.03379E-001	  4.51169E-001	  4.99290E-001
  3.60000E-003	  4.48840E-001	  4.93088E-001	  4.70424E-001	  4.75151E-001
  4.00000E-003	  4.70183E-001	  5.43808E-001	  4.72369E-001	  4.75955E-001
  4.40000E-003	  5.07211E-001	  5.12935E-001	  4.71202E-001	  4.74735E-001
  4.80000E-003	  4.92394E-001	  4.91435E-001	  5.12047E-001	  4.46169E-001
  5.20000E-003	  5.15677E-001	  5.00807E-001	  4.86581E-001	  4.79563E-001
  5.60000E-003	  4.74756E-001	  4.60378E-001	  5.05059E-001	  4.66688E-001
  6.00000E-003	  4.74756E-001	  4.90148E-001	  4.77051E-001	  4.70309E-001
  6.40000E-003	  4.66948E-001	  4.72142E-001	  4.90364E-001	  4.53012E-001
  7.20000E-003	  4.52836E-001	  4.86108E-001	  4.77929E-001	  4.62568E-001
  8.00000E-003	  5.11133E-001	  4.92356E-001	  4.57701E-001	  4.70212E-001
  8.80000E-003	  4.70387E-001	  4.87198E-001	  4.75206E-001	  4.39333E-001
  9.60000E-003	  4.59363E-001	  4.85544E-001	  4.79985E-001	  4.55628E-001
  1.04000E-002	  4.69241E-001	  4.94640E-001	  4.80082E-001	  4.56231E-001
  1.12000E-002	  4.76019E-001	  4.84717E-001	  4.50518E-001	  4.65169E-001
  1.20000E-002	  4.65347E-001	  4.93538E-001	  4.72205E-001	  4.56318E-001
  1.28000E-002	  4.73977E-001	  4.80438E-001	  4.63556E-001	  4.42546E-001
  1.44000E-002	  4.59645E-001	  4.77038E-001	  4.68516E-001	  4.36511E-001
  1.60000E-002	  4.38919E-001	  4.84940E-001	  4.64334E-001	  4.49134E-001
  1.76000E-002	  4.71659E-001	  4.76027E-001	  4.49746E-001	  4.40987E-001
  1.92000E-002	  4.68131E-001	  4.65783E-001	  4.56373E-001	  4.53811E-001
  2.08000E-002	  4.62663E-001	  4.46579E-001	  4.45091E-001	  4.49184E-001
  2.24000E-002	  4.45597E-001	  4.49047E-001	  4.44848E-001	  4.34864E-001
  2.40000E-002	  4.37471E-001	  4.60624E-001	  4.43535E-001	  4.24340E-001
  2.56000E-002	  4.38773E-001	  4.56968E-001	  4.38865E-001	  4.14059E-001
  2.88000E-002	  4.27903E-001	  4.53546E-001	  4.26563E-001	  4.19943E-001
  3.20000E-002	  4.24872E-001	  4.37375E-001	  4.04887E-001	  4.05358E-001
  3.52000E-002	  4.15105E-001	  4.22307E-001	  4.17457E-001	  4.06339E-001
  3.84000E-002	  4.15391E-001	  4.27062E-001	  4.08850E-001	  4.03409E-001
  4.16000E-002	  4.02196E-001	  4.17208E-001	  3.81852E-001	  3.91062E-001
  4.48000E-002	  3.89658E-001	  4.04392E-001	  3.96003E-001	  3.86863E-001
  4.80000E-002	  3.90474E-001	  4.02083E-001	  3.86885E-001	  3.78213E-001
  5.12000E-002	  3.82286E-001	  3.93774E-001	  3.78460E-001	  3.66622E-001
  5.76000E-002	  3.60567E-001	  3.78788E-001	  3.57648E-001	  3.52665E-001
  6.40000E-002	  3.49610E-001	  3.60780E-001	  3.53406E-001	  3.30197E-001
  7.04000E-002	  3.44583E-001	  3.52247E-001	  3.34381E-001	  3.29316E-001
  7.68000E-002	  3.22632E-001	  3.43610E-001	  3.21470E-001	  3.04004E-001
  8.32000E-002	  3.12709E-001	  3.28015E-001	  3.09144E-001	  3.05336E-001
  8.96000E-002	  3.04065E-001	  3.18023E-001	  2.94592E-001	  2.79898E-001
  9.60000E-002	  2.94373E-001	  3.06320E-001	  2.86970E-001	  2.76401E-001
  1.02400E-001	  2.82494E-001	  2.94844E-001	  2.70257E-001	  2.57744E-001
  1.15200E-001	  2.53954E-001	  2.72461E-001	  2.54806E-001	  2.36504E-001
  1.28000E-001	  2.33628E-001	  2.55297E-001	  2.29500E-001	  2.15558E-001
  1.40800E-001	  2.12842E-001	  2.37444E-001	  2.09990E-001	  2.01824E-001
  1.53600E-001	  1.97467E-001	  2.16387E-001	  1.91093E-001	  1.77181E-001
  1.66400E-001	  1.81284E-001	  2.02714E-001	  1.78112E-001	  1.63771E-001
  1.79200E-001	  1.66719E-001	  1.91165E-001	  1.59643E-001	  1.45463E-001
  1.92000E-001	  1.48840E-001	  1.74131E-001	  1.47590E-001	  1.35304E-001
  2.04800E-001	  1.38011E-001	  1.62214E-001	  1.35566E-001	  1.22468E-001
  2.30400E-001	  1.19405E-001	  1.44931E-001	  1.16844E-001	  1.01359E-001
  2.56000E-001	  1.01035E-001	  1.26906E-001	  9.95258E-002	  8.20829E-002
  2.81600E-001	  8.51559E-002	  1.08553E-001	  8.79978E-002	  6.61547E-002
  3.07200E-001	  7.30920E-002	  9.27923E-002	  7.88258E-002	  5.29592E-002
  3.32800E-001	  6.08536E-002	  8.45200E-002	  6.98134E-002	  4.24559E-002
  3.58400E-001	  5.19695E-002	  7.47532E-002	  6.06611E-002	  3.69462E-002
  3.84000E-001	  4.43486E-002	  6.26917E-002	  5.67149E-002	  2.94320E-002
  4.09600E-001	  3.82684E-002	  5.58345E-002	  5.02273E-002	  2.32866E-002
  4.60800E-001	  2.91293E-002	  4.57013E-002	  3.70494E-002	  2.11099E-002
  5.12000E-001	  1.97146E-002	  3.19192E-002	  3.16747E-002	  2.19703E-002
  5.63200E-001	  1.78467E-002	  2.59248E-002	  2.72053E-002	  1.86075E-002
  6.14400E-001	  1.33137E-002	  1.99627E-002	  1.94163E-002	  1.71526E-002
  6.65600E-001	  1.00052E-002	  1.08906E-002	  1.48375E-002	  1.81435E-002
  7.16800E-001	  8.83524E-003	  5.81744E-003	  9.97344E-003	  1.18706E-002
  7.68000E-001	  8.21550E-003	  1.97154E-003	  4.45109E-003	  1.66993E-002
  8.19200E-001	  7.63501E-003	  7.87895E-004	  8.15003E-003	  1.69591E-002
  9.21600E-001	  3.74081E-003	  3.89586E-003	  1.14657E-002	  1.11111E-002
  1.02400E+000	  2.50674E-003	  2.37578E-003	  5.30226E-003	  6.68005E-003
  1.12640E+000	  1.32940E-003	  1.70998E-003	  7.73298E-003	  7.86382E-003
  1.22880E+000	  6.76977E-004	 -3.00855E-003	  2.91351E-003	  4.27120E-003
  1.33120E+000	 -1.39666E-003	 -7.72502E-003	  2.73320E-003	  4.67900E-003
  1.43360E+000	 -1.33707E-003	 -1.60017E-002	  9.79099E-003	 -5.45985E-004
  1.53600E+000	 -1.05165E-003	 -1.49157E-002	  1.42843E-002	 -6.82726E-004
  1.63840E+000	  1.93348E-003	 -1.32074E-002	  1.74653E-002	  1.26647E-003
  1.84320E+000	  3.50514E-003	 -1.13290E-002	  9.23325E-003	  1.29442E-003
  2.04800E+000	  5.44447E-003	 -6.13204E-003	  5.40775E-003	  4.17680E-004
  2.25280E+000	 -2.47855E-003	 -9.91081E-004	  3.71738E-003	 -2.73992E-003
  2.45760E+000	 -8.82081E-003	  5.41554E-003	  6.53122E-003	 -2.92752E-003
  2.66240E+000	 -5.04173E-003	  1.18535E-002	 -2.52691E-003	  2.07212E-003
  2.86720E+000	 -3.37775E-003	  1.00581E-002	 -5.31232E-004	 -1.02333E-003
  3.07200E+000	  2.26799E-003	  8.89902E-003	  4.75966E-003	 -4.30075E-003
  3.27680E+000	  3.92591E-004	  9.18853E-003	  1.17360E-002	 -1.13311E-003
  3.68640E+000	  7.09205E-004	  5.02683E-003	 -3.21182E-003	  2.13413E-003
  4.09600E+000	  5.19427E-003	  1.81330E-003	  1.05415E-002	 -7.13811E-003
  4.50560E+000	  2.23148E-003	 -4.41502E-003	  8.79703E-003	 -4.23508E-003
  4.91520E+000	 -3.00081E-003	 -2.24850E-004	  1.14391E-002	  2.14779E-003
  5.32480E+000	 -3.62576E-003	 -6.41580E-003	  7.44662E-003	 -4.54680E-003
  5.73440E+000	  1.63430E-003	 -8.84697E-004	  9.00089E-003	 -6.71234E-003
  6.14400E+000	 -3.19512E-003	 -2.65902E-003	  7.50879E-003	  4.69298E-003
  6.55360E+000	  5.69284E-004	 -3.37941E-003	  5.47869E-003	  5.58484E-003
  7.37280E+000	 -2.43969E-003	 -1.75681E-003	  4.33840E-003	  1.00328E-003
  8.19200E+000	  6.70295E-003	  4.04643E-003	  4.28296E-003	 -2.09296E-003
  9.01120E+000	  1.20091E-003	  3.06006E-003	  7.86309E-003	  4.53691E-003
  9.83040E+000	 -1.02228E-003	  4.32967E-003	  6.18676E-003	  7.66351E-003
  1.06496E+001	  3.01616E-003	 -1.72685E-003	  8.46347E-004	 -2.51499E-004
  1.14688E+001	  7.67149E-003	  2.48559E-003	 -8.64673E-003	 -2.66382E-003
  1.22880E+001	 -8.82131E-003	 -6.86088E-003	  1.06611E-002	  2.28018E-003
  1.31072E+001	 -6.25586E-003	 -1.68345E-003	  6.54275E-003	  4.06079E-003
  1.47456E+001	  4.22296E-004	 -5.11654E-003	  4.86747E-003	 -2.34004E-003
  1.63840E+001	 -4.60915E-003	  2.94971E-003	  6.82892E-003	 -1.16830E-003
  1.80224E+001	  3.78487E-003	  6.41416E-003	  3.93497E-003	 -6.97575E-003
  1.96608E+001	  2.55554E-003	  2.60082E-003	 -1.27781E-003	  1.28461E-003
  2.12992E+001	  2.29633E-003	  2.42332E-003	  2.48683E-003	  3.98439E-004
  2.29376E+001	  8.05395E-003	 -9.86980E-003	  2.08611E-003	  1.09284E-002
  2.45760E+001	  6.76243E-003	  3.77286E-003	  1.68980E-003	 -4.62299E-003
  2.62144E+001	  2.32236E-003	  5.09991E-004	 -4.27429E-003	  1.77730E-004
  2.94912E+001	 -3.08146E-004	  3.27249E-003	  2.98012E-003	 -2.91401E-003
  3.27680E+001	  4.54373E-003	  2.30090E-003	  6.15213E-003	 -5.14801E-004
  3.60448E+001	 -1.03767E-003	  3.14405E-004	  3.24257E-003	 -2.70938E-003
  3.93216E+001	  2.79717E-004	  2.29240E-003	 -2.33373E-004	 -2.22644E-003
  4.25984E+001	  3.63704E-004	 -2.82395E-003	 -6.80676E-003	  1.09163E-003
  4.58752E+001	 -2.42180E-004	 -4.87336E-003	  2.29089E-003	 -1.69955E-004
  4.91520E+001	  3.34052E-003	 -1.51619E-003	 -1.65035E-003	 -3.08897E-003
  5.24288E+001	 -8.34819E-004	 -2.73239E-003	 -6.60181E-004	 -1.19550E-003
  5.89824E+001	  5.23459E-003	 -3.68364E-003	 -1.60405E-003	  1.55451E-003
  6.55360E+001	 -1.14327E-004	  2.07821E-003	 -4.11450E-003	 -1.46538E-003
  7.20896E+001	 -1.00497E-003	 -1.44819E-004	 -4.19770E-003	 -3.13072E-003
  7.86432E+001	  3.94729E-003	 -1.06130E-003	 -7.79216E-004	  1.71730E-003
  8.51968E+001	  7.26919E-004	 -3.79473E-003	 -1.55280E-003	  6.82752E-004
  9.17504E+001	 -5.72417E-004	 -4.98747E-003	 -4.28971E-003	  7.41790E-004
  9.83040E+001	 -2.07023E-003	 -5.69547E-003	 -3.03865E-003	  1.22546E-003
  1.04858E+002	  2.20461E-004	  8.65254E-004	 -2.62567E-003	 -9.20194E-004
  1.17965E+002	 -1.54356E-003	 -2.65585E-003	 -3.92202E-003	  3.01692E-003
  1.31072E+002	 -1.29417E-003	  4.34589E-003	 -1.19267E-003	 -3.38757E-004
  1.44179E+002	  1.77420E-004	  5.76280E-003	 -2.60000E-003	  1.89722E-003
  1.57286E+002	 -2.14433E-003	 -1.07088E-003	 -6.95106E-004	 -1.21803E-003
  1.70394E+002	 -4.64902E-004	  2.57419E-003	  4.54725E-003	  6.66954E-005
  1.83501E+002	 -1.59666E-003	 -1.29919E-003	  3.07749E-003	 -1.54505E-003
  1.96608E+002	 -1.57985E-003	 -1.46040E-003	  7.14730E-004	  3.47782E-005
  2.09715E+002	  2.90292E-004	  4.48568E-006	 -1.93745E-003	  1.79486E-004
  2.35930E+002	 -1.31086E-003	 -3.88043E-003	 -2.98826E-003	 -1.30168E-003
  2.62144E+002	 -1.64131E-003	 -1.86066E-003	 -4.74916E-003	  4.67264E-004
  2.88358E+002	  4.91870E-004	  2.92707E-004	  8.60892E-004	 -1.69688E-003
  3.14573E+002	 -7.65267E-004	  1.29161E-003	 -4.08506E-005	  1.57889E-003
  3.40787E+002	 -1.85412E-003	  8.82722E-004	  6.12592E-003	 -9.62482E-004
  3.67002E+002	 -3.98373E-003	  2.56488E-004	  7.66142E-004	 -1.42517E-003
  3.93216E+002	 -5.97534E-004	 -1.54905E-003	  9.83520E-004	 -1.52560E-004

"Count Rate"
       0.01311	     133.51440	     103.45459	     106.73523	     110.32104
       0.02621	     134.35364	     108.10852	     110.09216	     105.89600
       0.03932	     123.90137	     105.36194	     113.75427	     125.19836
       0.05243	     111.77063	     124.74060	     112.68616	     122.75696
       0.06554	     110.01587	     111.23657	     113.67798	     116.04309
       0.07864	     129.47083	     120.23926	     111.77063	     115.73792
       0.09175	     127.56348	     108.18481	     114.82239	     111.16028
       0.10486	     138.24463	     111.23657	      97.42737	     118.17932
       0.11796	     138.16833	     131.68335	     106.81152	     109.02405
       0.13107	     112.83875	     118.94226	     119.47632	     104.21753
       0.14418	     119.17114	     131.98853	     116.72974	     130.61523
       0.15729	     127.79236	     117.87415	     115.43274	     116.34827
       0.17039	     112.60986	     125.04578	     118.78967	     104.98047
       0.18350	     105.74341	     119.17114	     143.05115	      97.35107
       0.19661	     110.39734	     125.80872	     103.07312	     114.36462
       0.20972	      92.08679	     128.78418	     123.13843	     106.50635
       0.22282	     115.81421	     111.92322	     129.47083	      91.93420
       0.23593	     123.13843	     116.19568	     130.69153	     100.40283
       0.24904	     109.32922	     133.28552	     128.63159	     121.76514
       0.26214	     115.73792	     112.45728	     106.65894	      96.74072
       0.27525	     127.10571	     127.41089	     111.23657	     120.23926
       0.28836	     107.57446	     128.63159	      95.44373	     109.25293
       0.30147	     122.37549	     116.95862	     103.22571	     121.30737
       0.31457	     111.92322	      97.27478	     115.43274	      98.95325
       0.32768	     113.67798	      95.67261	      99.10583	      91.47644
       0.34079	     146.17920	     104.44641	     115.35645	     107.80334
       0.35389	     135.11658	     136.41357	     109.10034	     104.52271
       0.36700	     129.77600	     126.80054	      98.41919	     123.90137
       0.38011	     132.06482	     135.11658	     111.16028	      97.80884
       0.39322	     123.90137	     129.16565	     135.87952	     131.07300
       0.40632	     128.86047	     118.02673	     103.30200	     112.07581
       0.41943	     141.90674	     173.18726	     108.26111	     122.68066
       0.43254	     128.55530	     121.68884	     101.24207	      91.32385
       0.44564	     137.02393	     101.31836	      96.96960	      99.18213
       0.45875	     103.68347	     103.45459	     102.00500	      93.91785
       0.47186	     112.60986	      94.90967	     110.32104	     142.89856
       0.48497	     132.90405	     121.00220	      86.51733	     128.09753
       0.49807	     127.79236	     108.26111	     123.51990	     124.74060
       0.51118	     144.34814	     110.62622	     141.98303	     123.29102
       0.52429	     116.65344	     138.54980	     145.64514	      95.52002
       0.53740	     131.22559	     112.07581	     146.02661	     126.34277
       0.55050	     135.72693	     133.28552	     126.80054	     112.15210
       0.56361	     100.78430	     138.47351	     130.53894	     110.24475
       0.57672	     142.13562	     107.87964	     130.76782	     112.15210
       0.58982	     118.25562	     111.46545	     100.32654	     115.43274
       0.60293	     116.57715	     100.93689	      93.99414	     103.75977
       0.61604	     121.53625	     121.91772	     112.68616	     116.80603
       0.62915	     117.49268	     117.87415	     109.32922	     131.68335
       0.64225	     142.97485	      94.98596	     121.30737	     111.84692
       0.65536	     132.75146	     105.81970	      99.18213	     122.98584
       0.66847	     129.24194	     113.14392	      88.42468	     119.47632
       0.68157	     117.34009	     102.08130	     132.44629	     130.84412
       0.69468	     114.36462	     136.18469	      99.63989	     103.68347
       0.70779	     108.03223	     111.16028	     132.21741	     105.59082
       0.72090	     134.20105	     112.60986	     121.30737	     124.05396
       0.73400	     109.32922	     128.47900	     151.59607	      94.45190
       0.74711	     100.78430	      95.82520	     110.77881	     107.19299
       0.76022	     113.90686	     121.61255	     120.23926	      87.81433
       0.77332	     101.16577	     142.44080	      99.41101	     111.31287
       0.78643	     120.39185	     102.53906	      97.04590	     128.02124
       0.79954	     101.54724	     115.35645	      88.72986	     128.17383
       0.81265	     116.27197	     117.64526	     162.50610	     115.81421
       0.82575	     115.20386	     127.56348	     105.59082	      89.18762
       0.83886	     147.78137	     126.49536	      98.49548	     125.50354
       0.85197	     100.40283	     123.06213	     106.88782	     114.59351
       0.86508	     115.35645	     106.88782	     105.13306	     145.33997
       0.87818	     108.79517	     100.86060	     112.99133	     124.13025
       0.89129	     108.18481	     137.10022	     111.99951	     115.05127
       0.90440	     128.78418	     128.32642	     123.44360	     126.03760
       0.91750	     100.63171	     142.21191	     125.19836	      88.42468
       0.93061	     113.44910	     101.08948	     143.05115	     116.34827

Monitor Diode	      1.00
