ALV-7004/USB-FAST
Date :	"3/14/2024"
Time :	"12:33:28 PM"
Samplename : 	""
SampMemo(0) : 	""
SampMemo(1) : 	""
SampMemo(2) : 	""
SampMemo(3) : 	""
SampMemo(4) : 	""
SampMemo(5) : 	""
SampMemo(6) : 	""
SampMemo(7) : 	""
SampMemo(8) : 	""
SampMemo(9) : 	""
Temperature [K] :	     298.16000
Viscosity [cp]  :	       0.89000
Refractive Index:	       1.33200
Wavelength [nm] :	       0.00000
Angle [°]       :	       0.00000
Duration [s]    :	         1
FloatDur [ms]   :	          944
Stop TP [ms]   :	      3268
Runs            :	         1
Mode            :	"A-CH0+1  A-CH2+3 "
MeanCR0 [kHz]   :	     123.58030
MeanCR1 [kHz]   :	     122.72941
MeanCR2 [kHz]   :	     114.69099
MeanCR3 [kHz]   :	     120.20535

"Correlation"
  3.12500E-006	 -1.00000E+000	 -1.00000E+000	 -1.00000E+000	 -1.00000E+000
  6.25000E-006	 -1.00000E+000	 -1.00000E+000	 -1.00000E+000	 -1.00000E+000
  9.37500E-006	 -1.00000E+000	 -1.00000E+000	 -1.00000E+000	 -1.00000E+000
  1.25000E-005	 -1.00000E+000	 -1.00000E+000	 -1.00000E+000	 -1.00000E+000
  1.56250E-005	 -1.00000E+000	 -1.00000E+000	 -1.00000E+000	 -1.00000E+000
  1.87500E-005	 -1.00000E+000	 -1.00000E+000	 -1.00000E+000	 -1.00000E+000
  2.18750E-005	 -9.55594E-001	 -2.34605E-001	 -7.19927E-002	 -9.29599E-001
  2.50000E-005	  5.39443E+000	  6.56390E+000	  5.75383E+000	  1.06397E+001
  2.81250E-005	  1.70875E+000	  1.27367E+000	  1.70669E+000	  4.79638E+000
  3.12500E-005	  9.98258E-001	  1.00353E+000	  6.24013E-001	  3.20062E+000
  3.43750E-005	  3.98781E-001	  7.33394E-001	  9.59127E-001	  1.90992E+000
  3.75000E-005	  9.98258E-001	  7.78417E-001	  5.20901E-001	  1.55792E+000
  4.06250E-005	  1.06487E+000	  3.50696E-001	  8.30237E-001	  1.44058E+000
  4.37500E-005	  7.09621E-001	  4.40743E-001	  4.69345E-001	  1.39365E+000
  4.68750E-005	  7.31824E-001	  6.20836E-001	  4.17789E-001	  1.06511E+000
  5.00000E-005	  5.43099E-001	  5.53301E-001	  7.27125E-001	  1.10031E+000
  5.62500E-005	  7.76229E-001	  7.22138E-001	  5.98235E-001	  1.54618E+000
  6.25000E-005	  3.32172E-001	  5.42045E-001	  5.85346E-001	  9.71239E-001
  6.87500E-005	  3.43273E-001	  3.16929E-001	  6.62680E-001	  1.08857E+000
  7.50000E-005	  8.20635E-001	  7.10882E-001	  6.49791E-001	  7.95235E-001
  8.12500E-005	  4.98693E-001	  5.64557E-001	  3.92011E-001	  6.42699E-001
  8.75000E-005	  6.20809E-001	  5.08278E-001	  5.20901E-001	  5.95765E-001
  9.37500E-005	  4.65389E-001	  4.06975E-001	  3.66233E-001	  8.89104E-001
  1.00000E-004	  4.76490E-001	  6.37719E-001	  4.56456E-001	  7.77635E-001
  1.12500E-004	  5.70853E-001	  3.33813E-001	  5.78901E-001	  6.54432E-001
  1.25000E-004	  5.59751E-001	  5.81440E-001	  6.43346E-001	  8.36302E-001
  1.37500E-004	  4.65389E-001	  7.27766E-001	  5.33790E-001	  5.66431E-001
  1.50000E-004	  5.98606E-001	  4.06975E-001	  7.01347E-001	  5.42963E-001
  1.62500E-004	  5.54200E-001	  5.75812E-001	  4.75789E-001	  5.37097E-001
  1.75000E-004	  4.70940E-001	  4.12603E-001	  5.14456E-001	  4.49095E-001
  1.87500E-004	  5.76403E-001	  5.75812E-001	  7.98014E-001	  6.60299E-001
  2.00000E-004	  4.07106E-001	  5.16719E-001	  5.24123E-001	  6.54432E-001
  2.25000E-004	  5.62526E-001	  5.72998E-001	  5.08011E-001	  5.81097E-001
  2.50000E-004	  4.68164E-001	  5.95510E-001	  5.33789E-001	  5.31230E-001
  2.75000E-004	  4.34860E-001	  4.35114E-001	  3.59788E-001	  5.31230E-001
  3.00000E-004	  5.76403E-001	  5.16719E-001	  4.88678E-001	  4.98962E-001
  3.25000E-004	  5.62526E-001	  4.40742E-001	  4.75789E-001	  4.81362E-001
  3.50000E-004	  4.87592E-001	  4.35114E-001	  5.14456E-001	  4.96029E-001
  3.75000E-004	  6.01381E-001	  4.35114E-001	  6.01457E-001	  5.57630E-001
  4.00000E-004	  5.05631E-001	  5.46265E-001	  6.40123E-001	  5.70830E-001
  4.50000E-004	  5.22283E-001	  5.02649E-001	  5.19289E-001	  5.15095E-001
  5.00000E-004	  5.72239E-001	  4.15416E-001	  5.64400E-001	  5.51763E-001
  5.50000E-004	  5.19508E-001	  4.89986E-001	  5.53122E-001	  4.91628E-001
  6.00000E-004	  5.04243E-001	  4.12602E-001	  4.62899E-001	  4.76961E-001
  6.50000E-004	  5.44486E-001	  4.89986E-001	  4.50010E-001	  4.57894E-001
  7.00000E-004	  5.26446E-001	  4.44963E-001	  5.85345E-001	  5.38562E-001
  7.50000E-004	  4.97305E-001	  4.57625E-001	  5.54733E-001	  6.00164E-001
  8.00000E-004	  4.92447E-001	  4.97032E-001	  4.97537E-001	  5.44428E-001
  9.00000E-004	  5.22282E-001	  4.40049E-001	  5.26537E-001	  5.23161E-001
  1.00000E-003	  4.95916E-001	  4.74508E-001	  4.72565E-001	  4.91627E-001
  1.10000E-003	  4.49429E-001	  4.92095E-001	  4.44370E-001	  5.39294E-001
  1.20000E-003	  4.75101E-001	  5.35008E-001	  4.37120E-001	  4.90894E-001
  1.30000E-003	  4.67468E-001	  5.09682E-001	  4.81426E-001	  5.37094E-001
  1.40000E-003	  4.75101E-001	  4.67473E-001	  5.55538E-001	  4.77693E-001
  1.50000E-003	  4.76488E-001	  4.25264E-001	  5.26537E-001	  4.58626E-001
  1.60000E-003	  4.38672E-001	  4.59745E-001	  5.33382E-001	  4.58257E-001
  1.80000E-003	  4.78914E-001	  4.64317E-001	  5.45465E-001	  4.93091E-001
  2.00000E-003	  4.77180E-001	  4.62911E-001	  5.25326E-001	  4.49824E-001
  2.20000E-003	  4.77180E-001	  4.26329E-001	  5.14854E-001	  5.21692E-001
  2.40000E-003	  4.58446E-001	  4.68538E-001	  5.04382E-001	  4.80991E-001
  2.60000E-003	  4.74404E-001	  4.88575E-001	  5.22104E-001	  4.53857E-001
  2.80000E-003	  4.75098E-001	  4.58677E-001	  5.17271E-001	  5.01158E-001
  3.00000E-003	  4.62262E-001	  4.60787E-001	  5.30160E-001	  4.77324E-001
  3.20000E-003	  4.75093E-001	  4.36173E-001	  5.14245E-001	  4.79886E-001
  3.60000E-003	  5.13948E-001	  4.30721E-001	  4.97127E-001	  4.61919E-001
  4.00000E-003	  4.79256E-001	  4.58685E-001	  5.34585E-001	  4.92536E-001
  4.40000E-003	  4.59655E-001	  4.72943E-001	  5.01557E-001	  4.72552E-001
  4.80000E-003	  4.95214E-001	  4.43044E-001	  5.31564E-001	  4.89419E-001
  5.20000E-003	  4.74052E-001	  4.44803E-001	  5.26530E-001	  4.84286E-001
  5.60000E-003	  4.82899E-001	  4.55883E-001	  5.32168E-001	  4.74386E-001
  6.00000E-003	  4.94174E-001	  4.86121E-001	  4.91891E-001	  5.09036E-001
  6.40000E-003	  4.83322E-001	  4.52444E-001	  5.07703E-001	  4.73917E-001
  7.20000E-003	  4.69706E-001	  4.50685E-001	  5.11228E-001	  4.72267E-001
  8.00000E-003	  4.85230E-001	  4.44266E-001	  5.01863E-001	  4.56238E-001
  8.80000E-003	  4.84536E-001	  4.49630E-001	  5.00755E-001	  4.83097E-001
  9.60000E-003	  4.94077E-001	  4.39869E-001	  5.11731E-001	  4.89972E-001
  1.04000E-002	  4.70920E-001	  4.80232E-001	  4.77394E-001	  4.64305E-001
  1.12000E-002	  4.70660E-001	  4.52092E-001	  5.11530E-001	  4.71455E-001
  1.20000E-002	  4.71440E-001	  4.49982E-001	  5.00856E-001	  4.78252E-001
  1.28000E-002	  4.72096E-001	  4.53756E-001	  4.91751E-001	  4.83869E-001
  1.44000E-002	  4.65895E-001	  4.40082E-001	  5.08466E-001	  4.70165E-001
  1.60000E-002	  4.75912E-001	  4.55954E-001	  5.15917E-001	  4.62969E-001
  1.76000E-002	  4.71142E-001	  4.43951E-001	  5.08200E-001	  4.61411E-001
  1.92000E-002	  4.63727E-001	  4.48348E-001	  4.89370E-001	  4.54136E-001
  2.08000E-002	  4.58176E-001	  4.45578E-001	  4.86601E-001	  4.68390E-001
  2.24000E-002	  4.53883E-001	  4.39774E-001	  5.03230E-001	  4.64586E-001
  2.40000E-002	  4.61949E-001	  4.49139E-001	  4.90139E-001	  4.69366E-001
  2.56000E-002	  4.50012E-001	  4.29393E-001	  4.81872E-001	  4.67034E-001
  2.88000E-002	  4.45307E-001	  4.37615E-001	  4.86918E-001	  4.53481E-001
  3.20000E-002	  4.56777E-001	  4.33108E-001	  4.83897E-001	  4.45826E-001
  3.52000E-002	  4.53763E-001	  4.29295E-001	  4.84023E-001	  4.50570E-001
  3.84000E-002	  4.44883E-001	  4.24811E-001	  4.83545E-001	  4.46802E-001
  4.16000E-002	  4.35148E-001	  4.25294E-001	  4.66704E-001	  4.33716E-001
  4.48000E-002	  4.37554E-001	  4.10367E-001	  4.58962E-001	  4.35435E-001
  4.80000E-002	  4.36861E-001	  4.16557E-001	  4.57451E-001	  4.19484E-001
  5.12000E-002	  4.28843E-001	  4.05371E-001	  4.55166E-001	  4.28133E-001
  5.76000E-002	  4.25125E-001	  4.07208E-001	  4.38614E-001	  4.25544E-001
  6.40000E-002	  4.24704E-001	  4.11793E-001	  4.47074E-001	  4.23528E-001
  7.04000E-002	  4.11379E-001	  3.87876E-001	  4.40290E-001	  4.10454E-001
  7.68000E-002	  4.14241E-001	  3.86613E-001	  4.35392E-001	  4.08884E-001
  8.32000E-002	  3.90258E-001	  3.76874E-001	  4.25561E-001	  4.13149E-001
  8.96000E-002	  3.91299E-001	  3.69607E-001	  4.18764E-001	  3.93600E-001
  9.60000E-002	  3.83408E-001	  3.68805E-001	  4.21029E-001	  3.82795E-001
  1.02400E-001	  3.83459E-001	  3.63238E-001	  4.07297E-001	  3.80230E-001
  1.15200E-001	  3.72666E-001	  3.47290E-001	  3.99537E-001	  3.66765E-001
  1.28000E-001	  3.59251E-001	  3.46945E-001	  3.88647E-001	  3.66174E-001
  1.40800E-001	  3.49903E-001	  3.30106E-001	  3.69324E-001	  3.52816E-001
  1.53600E-001	  3.38019E-001	  3.27805E-001	  3.60349E-001	  3.39029E-001
  1.66400E-001	  3.28206E-001	  3.16626E-001	  3.54174E-001	  3.22814E-001
  1.79200E-001	  3.22849E-001	  3.04304E-001	  3.43802E-001	  3.24350E-001
  1.92000E-001	  3.11761E-001	  2.90778E-001	  3.26663E-001	  3.06706E-001
  2.04800E-001	  3.04305E-001	  2.85356E-001	  3.26410E-001	  2.98716E-001
  2.30400E-001	  2.88542E-001	  2.71249E-001	  3.06709E-001	  2.81586E-001
  2.56000E-001	  2.68522E-001	  2.54984E-001	  2.86295E-001	  2.67364E-001
  2.81600E-001	  2.53469E-001	  2.39059E-001	  2.68648E-001	  2.47685E-001
  3.07200E-001	  2.40364E-001	  2.24904E-001	  2.52212E-001	  2.31663E-001
  3.32800E-001	  2.22879E-001	  2.08869E-001	  2.37084E-001	  2.24528E-001
  3.58400E-001	  2.14152E-001	  1.98586E-001	  2.23725E-001	  2.05058E-001
  3.84000E-001	  2.00691E-001	  1.85991E-001	  2.11056E-001	  1.98297E-001
  4.09600E-001	  1.89988E-001	  1.74070E-001	  1.99088E-001	  1.83292E-001
  4.60800E-001	  1.70902E-001	  1.48204E-001	  1.78034E-001	  1.61592E-001
  5.12000E-001	  1.46600E-001	  1.27254E-001	  1.59229E-001	  1.42633E-001
  5.63200E-001	  1.32013E-001	  1.11251E-001	  1.42016E-001	  1.25527E-001
  6.14400E-001	  1.17322E-001	  9.74799E-002	  1.22152E-001	  1.13031E-001
  6.65600E-001	  1.09323E-001	  8.98327E-002	  1.07575E-001	  1.00823E-001
  7.16800E-001	  9.82784E-002	  7.68957E-002	  9.60442E-002	  8.92664E-002
  7.68000E-001	  8.57589E-002	  6.42905E-002	  8.91929E-002	  7.79032E-002
  8.19200E-001	  7.75938E-002	  5.95134E-002	  7.89279E-002	  6.98515E-002
  9.21600E-001	  6.52144E-002	  4.66109E-002	  6.53727E-002	  5.81791E-002
  1.02400E+000	  5.64639E-002	  3.46211E-002	  5.12111E-002	  5.00558E-002
  1.12640E+000	  4.79417E-002	  2.66868E-002	  4.21094E-002	  4.02861E-002
  1.22880E+000	  4.22655E-002	  2.06249E-002	  3.37992E-002	  3.60243E-002
  1.33120E+000	  3.38658E-002	  1.32936E-002	  2.44255E-002	  2.96186E-002
  1.43360E+000	  2.63971E-002	  6.50486E-003	  1.59435E-002	  2.30779E-002
  1.53600E+000	  2.10152E-002	  2.48533E-003	  1.41734E-002	  2.02806E-002
  1.63840E+000	  1.62926E-002	 -5.06562E-004	  1.89698E-002	  1.61131E-002
  1.84320E+000	  9.00267E-003	  1.16081E-003	  2.74087E-002	  4.63302E-003
  2.04800E+000	  1.55332E-003	 -1.68024E-003	  2.23320E-002	  4.59659E-003
  2.25280E+000	 -2.49052E-004	  7.31098E-004	  2.22965E-002	  7.39226E-003
  2.45760E+000	  4.59845E-003	  2.26679E-003	  2.06119E-002	  3.50319E-003
  2.66240E+000	  1.53717E-002	 -5.45725E-003	  8.62707E-003	  1.75079E-003
  2.86720E+000	  2.42614E-002	 -5.82075E-003	  6.73204E-003	  3.44508E-003
  3.07200E+000	  2.81315E-002	 -4.07722E-003	 -2.99821E-003	  4.46041E-003
  3.27680E+000	  2.62479E-002	 -3.56527E-003	 -6.74602E-003	  5.40635E-003
  3.68640E+000	  2.06880E-002	  1.26818E-003	 -8.38397E-005	  6.78247E-003
  4.09600E+000	  1.97561E-002	 -8.37615E-003	  7.17255E-003	  9.95842E-003
  4.50560E+000	  1.37517E-002	 -7.16198E-003	  9.60631E-003	  4.63636E-003
  4.91520E+000	  1.14587E-002	  3.74991E-003	  1.86911E-002	 -1.48545E-003
  5.32480E+000	  1.87220E-002	  4.72702E-003	  1.29365E-002	 -1.19240E-002
  5.73440E+000	  2.20936E-002	  2.56070E-003	 -3.62970E-003	 -1.00257E-002
  6.14400E+000	  1.43095E-002	 -1.13689E-003	 -8.60984E-003	 -3.84095E-003
  6.55360E+000	  1.27683E-002	  4.01238E-003	 -1.29746E-002	 -4.25454E-003
  7.37280E+000	  9.28452E-003	  6.73797E-003	 -9.61441E-003	 -1.40145E-002
  8.19200E+000	  7.07400E-003	  8.27569E-004	 -1.52613E-002	 -1.12490E-002
  9.01120E+000	  7.98042E-003	 -8.43718E-003	 -1.73317E-002	 -9.15537E-003
  9.83040E+000	  7.01431E-003	  5.98832E-003	 -3.32743E-003	  2.79659E-004
  1.06496E+001	  1.45272E-002	  2.12625E-002	 -1.36673E-002	  8.66299E-003
  1.14688E+001	  3.63887E-003	  2.27950E-002	 -1.80119E-002	 -6.76809E-003
  1.22880E+001	 -5.98334E-003	  1.49498E-002	  4.97908E-004	 -9.55789E-003
  1.31072E+001	 -4.02550E-003	  7.74257E-003	  5.38386E-003	 -5.76772E-003
  1.47456E+001	  2.30422E-003	  1.43656E-003	  1.90616E-003	 -2.31991E-003
  1.63840E+001	 -8.77331E-004	 -2.23822E-003	 -1.32541E-003	  2.90228E-003
  1.80224E+001	  1.44560E-002	  8.25365E-003	  3.13809E-003	  3.99665E-004
  1.96608E+001	  1.20079E-002	  6.48977E-003	 -1.98566E-003	 -2.66092E-003
  2.12992E+001	  1.74415E-002	  8.80212E-003	  9.52331E-003	 -8.56057E-003
  2.29376E+001	  8.68965E-003	  1.82744E-002	  1.18713E-002	 -1.07635E-002
  2.45760E+001	  7.95771E-003	  3.74989E-003	  7.09460E-003	 -7.93757E-003
  2.62144E+001	  4.49517E-004	  4.62567E-003	  9.28011E-003	 -3.44425E-003
  2.94912E+001	  1.73069E-003	  3.91591E-003	 -1.30108E-003	  5.35218E-003
  3.27680E+001	  5.70764E-003	  1.59326E-003	 -4.95426E-003	 -2.19825E-003
  3.60448E+001	 -1.40058E-003	  3.73370E-003	 -1.49871E-003	 -1.45568E-003
  3.93216E+001	  1.02933E-002	 -8.22600E-003	  8.27239E-003	  8.42184E-005
  4.25984E+001	  1.20514E-003	 -1.35015E-003	  6.61253E-003	 -1.97977E-003
  4.58752E+001	  3.72738E-003	  4.37764E-003	  5.90913E-003	 -2.71813E-003
  4.91520E+001	  7.76467E-003	 -6.11767E-003	  4.53645E-003	  1.23650E-002
  5.24288E+001	  3.46876E-003	 -1.23508E-002	  5.77434E-003	  1.14515E-002
  5.89824E+001	  3.99000E-003	 -1.80227E-003	  4.29941E-005	 -2.29381E-003
  6.55360E+001	  2.90502E-003	 -4.11947E-003	 -8.14534E-003	 -2.12937E-004
  7.20896E+001	  1.21275E-002	  2.76017E-003	 -5.85786E-003	 -2.70088E-003
  7.86432E+001	 -2.73729E-003	  3.73488E-003	  1.45232E-002	 -1.35045E-002
  8.51968E+001	 -9.33132E-003	 -6.00058E-003	 -8.41074E-003	  2.41610E-003
  9.17504E+001	  1.69132E-003	  3.38384E-003	 -4.66416E-003	  8.02043E-003
  9.83040E+001	  7.90129E-003	  3.75028E-003	  4.11600E-003	 -8.65172E-004
  1.04858E+002	 -6.68044E-003	  7.04327E-003	 -1.05862E-002	 -1.42152E-003
  1.17965E+002	 -6.79709E-003	  3.08325E-003	 -2.35103E-003	 -3.41191E-003
  1.31072E+002	 -4.99823E-003	  1.14722E-003	 -3.71719E-004	  9.56703E-004
  1.44179E+002	 -6.07363E-003	  8.58684E-005	  1.51116E-003	  1.09586E-002
  1.57286E+002	 -1.50320E-002	 -5.53225E-003	 -1.64431E-003	 -5.96550E-003
  1.70394E+002	 -3.80575E-003	 -4.27386E-003	  4.27241E-003	 -3.17692E-003
  1.83501E+002	 -8.53479E-003	 -5.56257E-003	 -4.43690E-003	  5.27525E-003
  1.96608E+002	 -3.72685E-003	 -2.55961E-003	 -3.67643E-003	  4.81115E-003
  2.09715E+002	  2.11856E-004	 -2.27760E-003	 -3.23524E-003	 -3.19242E-003
  2.35930E+002	  2.03457E-003	 -4.84277E-003	 -3.50255E-003	  5.45361E-004
  2.62144E+002	 -2.13716E-003	  6.30427E-005	 -3.44597E-003	 -2.04237E-003
  2.88358E+002	  6.66107E-003	  3.86952E-003	  3.18691E-003	  2.39426E-003
  3.14573E+002	  5.44068E-003	 -2.45013E-003	  4.80800E-003	 -2.00057E-003
  3.40787E+002	  1.86818E-003	 -3.40259E-003	 -9.93883E-004	 -4.77159E-006
  3.67002E+002	 -1.10371E-002	  1.98957E-003	  5.47148E-003	 -2.53888E-003
  3.93216E+002	 -1.09329E-002	  6.78764E-003	  7.89065E-003	  1.43104E-003

"Count Rate"
       0.01311	     120.62073	     109.93958	      96.58813	     126.41907
       0.02621	     102.69165	     140.22827	     114.13574	     118.63708
       0.03932	     118.33191	      99.63989	     119.62891	     107.04041
       0.05243	      88.19580	     134.65881	      92.08679	     128.25012
       0.06554	     119.47632	     118.63708	     118.63708	     118.10303
       0.07864	     130.76782	     138.01575	     105.97229	     155.94482
       0.09175	     143.81409	     145.03479	     119.70520	     102.53906
       0.10486	     110.93140	     160.67505	     160.90393	      97.65625
       0.11796	     151.90125	     144.80591	     112.53357	      86.36475
       0.13107	     111.84692	     172.19543	     113.52539	     113.83057
       0.14418	     154.72412	     157.31812	     121.38367	     139.46533
       0.15729	     153.04565	     123.90137	     126.95313	      81.40564
       0.17039	     100.63171	     120.23926	     119.32373	     120.01038
       0.18350	     120.92590	      98.41919	     132.21741	     111.31287
       0.19661	      81.25305	     120.54443	      90.48462	      85.22034
       0.20972	     124.89319	     138.09204	     119.09485	     120.46814
       0.22282	     145.18738	     146.25549	      94.68079	     127.94495
       0.23593	     114.13574	     120.54443	     102.69165	      92.54456
       0.24904	      99.41101	     144.27185	     121.07849	     111.99951
       0.26214	     126.80054	      92.77344	     107.11670	     130.15747
       0.27525	      90.86609	      93.99414	      86.59363	     123.29102
       0.28836	      99.79248	      99.33472	     117.34009	      79.04053
       0.30147	      87.50916	      67.74902	     149.38354	      92.92603
       0.31457	     104.82788	     115.20386	      69.35120	     153.12195
       0.32768	     113.67798	     106.81152	     160.75134	     107.19299
       0.34079	     108.87146	     143.28003	     181.42700	     121.38367
       0.35389	     186.46240	     148.31543	     120.77332	     100.47913
       0.36700	     118.78967	      81.63452	     121.84143	     125.80872
       0.38011	     116.34827	     129.54712	     134.65881	     116.50085
       0.39322	     160.14099	     117.34009	     116.65344	     112.45728
       0.40632	     184.02100	     104.67529	     153.35083	     129.24194
       0.41943	     144.65332	     124.28284	     100.93689	     119.93408
       0.43254	     110.47363	     130.15747	      96.74072	     116.65344
       0.44564	     180.05371	      90.40833	      68.96973	      86.13586
       0.45875	     141.14380	     111.38916	     112.83875	     152.43530
       0.47186	     169.06738	     100.86060	     152.66418	     114.51721
       0.48497	     129.62341	     137.71057	     100.86060	     111.38916
       0.49807	     114.13574	     141.52527	     119.55261	     120.54443
       0.51118	     109.32922	     147.70508	     104.44641	     129.39453
       0.52429	     123.51990	     118.78967	     115.50903	     101.47095
       0.53740	     142.89856	     133.13293	      98.57178	     106.73523
       0.55050	      92.84973	     115.05127	     112.38098	     141.75415
       0.56361	     157.16553	     109.78699	     100.32654	     144.11926
       0.57672	      99.56360	      91.62903	      85.67810	     134.96399
       0.58982	      81.63452	     121.23108	      90.71350	     111.77063
       0.60293	     108.48999	     112.07581	      96.96960	     123.29102
       0.61604	     109.02405	     135.19287	      96.35925	     113.06763
       0.62915	     112.30469	     141.90674	     138.93127	     105.74341
       0.64225	     133.51440	     108.64258	     132.21741	     129.62341
       0.65536	     104.52271	     125.80872	      98.34290	     115.35645
       0.66847	     134.58252	     113.98315	     126.26648	     130.84412
       0.68157	     106.96411	     112.22839	      98.57178	     109.78699
       0.69468	     139.46533	     113.90686	     116.04309	     183.63953
       0.70779	     159.37805	     130.61523	     116.88232	     122.22290
       0.72090	     110.24475	     109.48181	     113.67798	     102.46277
       0.73400	     111.69434	     114.05945	     134.42993	     104.98047
       0.74711	      87.12769	      96.13037	     101.31836	     123.97766
       0.76022	     123.06213	     122.98584	     137.10022	     127.25830
       0.77332	      98.49548	     106.73523	     104.82788	      74.08142
       0.78643	      89.95056	     110.70251	     135.11658	     115.50903
       0.79954	      96.74072	     100.63171	      90.17944	     118.94226
       0.81265	     113.75427	     134.12476	     138.01575	      84.60999
       0.82575	      71.56372	     124.28284	      83.69446	     108.33740
       0.83886	     133.20923	     134.88770	      91.32385	     158.23364
       0.85197	     141.90674	     134.12476	     117.41638	     123.97766
       0.86508	     130.69153	     107.65076	      97.50366	     150.29907
       0.87818	      98.41919	     116.72974	      99.48730	     103.37830
       0.89129	      85.98328	      97.27478	     137.63428	     155.18188
       0.90440	     125.50354	     100.17395	      73.62366	     130.53894
       0.91750	     151.90125	     139.77051	     102.00500	     118.56079
       0.93061	     143.81409	     129.62341	      85.75439	     111.38916

Monitor Diode	      1.00
