ALV-7004/USB-FAST
Date :	"3/14/2024"
Time :	"12:30:35 PM"
Samplename : 	""
SampMemo(0) : 	""
SampMemo(1) : 	""
SampMemo(2) : 	""
SampMemo(3) : 	""
SampMemo(4) : 	""
SampMemo(5) : 	""
SampMemo(6) : 	""
SampMemo(7) : 	""
SampMemo(8) : 	""
SampMemo(9) : 	""
Temperature [K] :	     298.16000
Viscosity [cp]  :	       0.89000
Refractive Index:	       1.33200
Wavelength [nm] :	       0.00000
Angle [°]       :	       0.00000
Duration [s]    :	         1
FloatDur [ms]   :	          944
Stop TP [ms]   :	      3165
Runs            :	         1
Mode            :	"A-CH0+1  A-CH2+3 "
MeanCR0 [kHz]   :	     152.30814
MeanCR1 [kHz]   :	     150.44319
MeanCR2 [kHz]   :	     140.87041
MeanCR3 [kHz]   :	     140.50059

"Correlation"
  3.12500E-006	 -1.00000E+000	 -1.00000E+000	 -1.00000E+000	 -1.00000E+000
  6.25000E-006	 -1.00000E+000	 -1.00000E+000	 -1.00000E+000	 -1.00000E+000
  9.37500E-006	 -1.00000E+000	 -1.00000E+000	 -1.00000E+000	 -1.00000E+000
  1.25000E-005	 -1.00000E+000	 -1.00000E+000	 -1.00000E+000	 -1.00000E+000
  1.56250E-005	 -1.00000E+000	 -1.00000E+000	 -1.00000E+000	 -1.00000E+000
  1.87500E-005	 -1.00000E+000	 -1.00000E+000	 -1.00000E+000	 -1.00000E+000
  2.18750E-005	 -8.39212E-001	 -2.65899E-001	 -2.48168E-001	 -9.31291E-001
  2.50000E-005	  5.18303E+000	  5.03760E+000	  5.18552E+000	  1.04056E+001
  2.81250E-005	  1.47029E+000	  9.47614E-001	  1.23841E+000	  4.23903E+000
  3.12500E-005	  9.00223E-001	  4.83183E-001	  6.40360E-001	  2.10906E+000
  3.43750E-005	  1.17795E+000	  7.67834E-001	  5.72012E-001	  1.98882E+000
  3.75000E-005	  8.12521E-001	  8.42742E-001	  4.01141E-001	  1.31892E+000
  4.06250E-005	  5.64030E-001	  9.32632E-001	  8.45405E-001	  2.04036E+000
  4.37500E-005	  6.66350E-001	  8.27760E-001	  5.20751E-001	  1.16432E+000
  4.68750E-005	  6.22498E-001	  5.13146E-001	  5.03663E-001	  1.18150E+000
  5.00000E-005	  3.88625E-001	  6.40490E-001	  6.40360E-001	  1.29315E+000
  5.62500E-005	  5.20178E-001	  6.10527E-001	  6.23273E-001	  1.18150E+000
  6.25000E-005	  5.42104E-001	  6.62962E-001	  5.89099E-001	  8.03601E-001
  6.87500E-005	  5.71338E-001	  7.37871E-001	  5.03663E-001	  8.63721E-001
  7.50000E-005	  4.76327E-001	  6.03036E-001	  4.26771E-001	  8.12190E-001
  8.12500E-005	  5.42104E-001	  5.43109E-001	  5.20750E-001	  7.34892E-001
  8.75000E-005	  5.49413E-001	  3.70820E-001	  5.63468E-001	  6.40418E-001
  9.37500E-005	  3.74007E-001	  3.93293E-001	  6.31816E-001	  6.23241E-001
  1.00000E-004	  4.98253E-001	  5.46854E-001	  5.33566E-001	  6.79066E-001
  1.12500E-004	  5.27487E-001	  5.50600E-001	  4.31043E-001	  7.00538E-001
  1.25000E-004	  4.87290E-001	  4.68201E-001	  5.07935E-001	  5.80298E-001
  1.37500E-004	  5.45758E-001	  4.34492E-001	  4.73761E-001	  5.28766E-001
  1.50000E-004	  5.34795E-001	  5.13146E-001	  6.57447E-001	  4.64352E-001
  1.62500E-004	  5.05561E-001	  5.39364E-001	  4.95120E-001	  4.98706E-001
  1.75000E-004	  5.05561E-001	  3.33366E-001	  4.60945E-001	  4.64352E-001
  1.87500E-004	  4.43439E-001	  4.38238E-001	  5.46381E-001	  6.70478E-001
  2.00000E-004	  4.65364E-001	  4.66328E-001	  4.60945E-001	  5.48090E-001
  2.25000E-004	  4.87290E-001	  4.64455E-001	  4.65217E-001	  4.98706E-001
  2.50000E-004	  4.87290E-001	  5.76817E-001	  4.31043E-001	  5.39502E-001
  2.75000E-004	  4.41611E-001	  5.89926E-001	  4.97255E-001	  4.27850E-001
  3.00000E-004	  4.05068E-001	  4.41983E-001	  5.27158E-001	  5.11589E-001
  3.25000E-004	  4.89117E-001	  5.61836E-001	  5.74147E-001	  5.35208E-001
  3.50000E-004	  5.34795E-001	  5.30000E-001	  5.46381E-001	  5.28766E-001
  3.75000E-004	  4.67191E-001	  5.33745E-001	  5.03663E-001	  5.99622E-001
  4.00000E-004	  4.34302E-001	  5.26254E-001	  4.58809E-001	  5.01926E-001
  4.50000E-004	  4.77240E-001	  5.34681E-001	  5.03662E-001	  4.80455E-001
  5.00000E-004	  4.92770E-001	  5.01909E-001	  4.03276E-001	  5.33060E-001
  5.50000E-004	  4.06895E-001	  4.22319E-001	  4.44925E-001	  5.47016E-001
  6.00000E-004	  4.99165E-001	  4.69136E-001	  4.88711E-001	  4.60057E-001
  6.50000E-004	  4.79067E-001	  4.35428E-001	  4.55605E-001	  4.95485E-001
  7.00000E-004	  4.47092E-001	  4.85991E-001	  4.84439E-001	  5.79223E-001
  7.50000E-004	  4.88202E-001	  5.46853E-001	  5.34633E-001	  5.68488E-001
  8.00000E-004	  4.63078E-001	  5.13154E-001	  4.62545E-001	  5.22859E-001
  9.00000E-004	  4.72214E-001	  5.01450E-001	  5.09001E-001	  5.21786E-001
  1.00000E-003	  4.87744E-001	  4.99577E-001	  4.66817E-001	  4.68644E-001
  1.10000E-003	  4.81349E-001	  5.20645E-001	  4.38517E-001	  4.67571E-001
  1.20000E-003	  4.30190E-001	  4.50408E-001	  4.66283E-001	  5.24470E-001
  1.30000E-003	  5.09670E-001	  5.26252E-001	  4.74827E-001	  5.14271E-001
  1.40000E-003	  4.58510E-001	  4.61644E-001	  4.47060E-001	  4.61666E-001
  1.50000E-003	  4.75868E-001	  4.88330E-001	  4.45458E-001	  4.97631E-001
  1.60000E-003	  4.48230E-001	  4.61184E-001	  4.37446E-001	  4.74815E-001
  1.80000E-003	  4.19224E-001	  4.84593E-001	  4.50795E-001	  4.80988E-001
  2.00000E-003	  4.43662E-001	  4.58375E-001	  4.29704E-001	  4.83940E-001
  2.20000E-003	  4.68100E-001	  4.73591E-001	  4.79363E-001	  4.92260E-001
  2.40000E-003	  4.77693E-001	  4.93020E-001	  4.54800E-001	  4.69984E-001
  2.60000E-003	  4.63532E-001	  4.73122E-001	  4.42786E-001	  5.13732E-001
  2.80000E-003	  4.58736E-001	  4.95350E-001	  4.77227E-001	  4.92260E-001
  3.00000E-003	  4.61705E-001	  4.57194E-001	  4.57203E-001	  4.84745E-001
  3.20000E-003	  4.58160E-001	  4.70191E-001	  4.69479E-001	  4.74440E-001
  3.60000E-003	  4.38176E-001	  4.74522E-001	  4.80025E-001	  4.79137E-001
  4.00000E-003	  4.41374E-001	  4.68787E-001	  4.56264E-001	  5.18726E-001
  4.40000E-003	  4.38404E-001	  4.69606E-001	  4.44116E-001	  5.11077E-001
  4.80000E-003	  4.52336E-001	  4.53571E-001	  4.42781E-001	  5.10137E-001
  5.20000E-003	  4.56105E-001	  4.69372E-001	  4.60936E-001	  4.83029E-001
  5.60000E-003	  4.53021E-001	  4.49474E-001	  4.49322E-001	  4.85847E-001
  6.00000E-003	  4.44000E-001	  4.76384E-001	  4.66009E-001	  4.79149E-001
  6.40000E-003	  4.56323E-001	  4.68777E-001	  4.56588E-001	  4.85636E-001
  7.20000E-003	  4.43372E-001	  4.70123E-001	  4.35229E-001	  4.95556E-001
  8.00000E-003	  4.53878E-001	  4.75975E-001	  4.58723E-001	  4.78356E-001
  8.80000E-003	  4.50681E-001	  4.63802E-001	  4.67534E-001	  4.85480E-001
  9.60000E-003	  4.35036E-001	  4.65148E-001	  4.41503E-001	  4.82393E-001
  1.04000E-002	  4.29440E-001	  4.66260E-001	  4.53250E-001	  4.84014E-001
  1.12000E-002	  4.48968E-001	  4.49816E-001	  4.51125E-001	  4.78590E-001
  1.20000E-002	  4.43372E-001	  4.69899E-001	  4.63206E-001	  4.88186E-001
  1.28000E-002	  4.39947E-001	  4.67003E-001	  4.45199E-001	  4.82339E-001
  1.44000E-002	  4.25730E-001	  4.71578E-001	  4.52474E-001	  4.87719E-001
  1.60000E-002	  4.38120E-001	  4.60078E-001	  4.46311E-001	  4.72777E-001
  1.76000E-002	  4.21190E-001	  4.52159E-001	  4.30826E-001	  4.67240E-001
  1.92000E-002	  4.40546E-001	  4.56782E-001	  4.42273E-001	  4.57700E-001
  2.08000E-002	  4.24445E-001	  4.49145E-001	  4.39136E-001	  4.64411E-001
  2.24000E-002	  4.28099E-001	  4.64576E-001	  4.29624E-001	  4.69052E-001
  2.40000E-002	  4.17593E-001	  4.53164E-001	  4.36432E-001	  4.43989E-001
  2.56000E-002	  4.26025E-001	  4.48854E-001	  4.30520E-001	  4.54544E-001
  2.88000E-002	  4.14872E-001	  4.36930E-001	  4.20675E-001	  4.50349E-001
  3.20000E-002	  4.11922E-001	  4.38432E-001	  4.15853E-001	  4.44460E-001
  3.52000E-002	  3.96677E-001	  4.21904E-001	  4.03783E-001	  4.41508E-001
  3.84000E-002	  4.04066E-001	  4.20514E-001	  4.06753E-001	  4.26978E-001
  4.16000E-002	  3.84810E-001	  4.24079E-001	  4.00212E-001	  4.29204E-001
  4.48000E-002	  3.80947E-001	  4.07268E-001	  3.93204E-001	  4.17046E-001
  4.80000E-002	  3.82289E-001	  4.06990E-001	  3.79271E-001	  4.18686E-001
  5.12000E-002	  3.71404E-001	  3.97402E-001	  3.69627E-001	  4.09807E-001
  5.76000E-002	  3.60037E-001	  3.87547E-001	  3.63270E-001	  3.88504E-001
  6.40000E-002	  3.49954E-001	  3.78943E-001	  3.49396E-001	  3.78374E-001
  7.04000E-002	  3.34266E-001	  3.66092E-001	  3.40694E-001	  3.64428E-001
  7.68000E-002	  3.26743E-001	  3.49657E-001	  3.23574E-001	  3.58446E-001
  8.32000E-002	  3.21881E-001	  3.41731E-001	  3.16525E-001	  3.45927E-001
  8.96000E-002	  3.01516E-001	  3.25776E-001	  2.99030E-001	  3.39128E-001
  9.60000E-002	  2.93965E-001	  3.18716E-001	  2.89986E-001	  3.25761E-001
  1.02400E-001	  2.89552E-001	  3.01898E-001	  2.89745E-001	  3.13451E-001
  1.15200E-001	  2.66831E-001	  2.87182E-001	  2.63314E-001	  2.94047E-001
  1.28000E-001	  2.53533E-001	  2.65744E-001	  2.47171E-001	  2.72870E-001
  1.40800E-001	  2.36183E-001	  2.47762E-001	  2.30796E-001	  2.62132E-001
  1.53600E-001	  2.22322E-001	  2.31279E-001	  2.16159E-001	  2.40649E-001
  1.66400E-001	  2.11977E-001	  2.23070E-001	  2.03809E-001	  2.21758E-001
  1.79200E-001	  1.96110E-001	  2.04357E-001	  1.86649E-001	  2.10978E-001
  1.92000E-001	  1.83306E-001	  1.97144E-001	  1.76981E-001	  1.95064E-001
  2.04800E-001	  1.73870E-001	  1.80629E-001	  1.66282E-001	  1.81911E-001
  2.30400E-001	  1.53246E-001	  1.58806E-001	  1.45637E-001	  1.59358E-001
  2.56000E-001	  1.36945E-001	  1.37933E-001	  1.29159E-001	  1.39871E-001
  2.81600E-001	  1.24425E-001	  1.22388E-001	  1.13288E-001	  1.18645E-001
  3.07200E-001	  1.13842E-001	  1.07715E-001	  1.00374E-001	  1.07030E-001
  3.32800E-001	  9.77570E-002	  9.78007E-002	  9.16099E-002	  9.07132E-002
  3.58400E-001	  8.75624E-002	  8.88733E-002	  8.33188E-002	  8.59467E-002
  3.84000E-001	  7.81762E-002	  8.13484E-002	  7.35198E-002	  7.39972E-002
  4.09600E-001	  7.06362E-002	  7.36332E-002	  6.83458E-002	  6.40239E-002
  4.60800E-001	  5.56301E-002	  6.63842E-002	  5.33336E-002	  4.99003E-002
  5.12000E-001	  4.52002E-002	  5.83613E-002	  4.31689E-002	  4.29210E-002
  5.63200E-001	  3.90508E-002	  5.14636E-002	  3.77662E-002	  3.55279E-002
  6.14400E-001	  3.49740E-002	  4.66809E-002	  3.27229E-002	  3.39775E-002
  6.65600E-001	  2.86363E-002	  4.43527E-002	  2.71642E-002	  2.59854E-002
  7.16800E-001	  2.89978E-002	  3.90596E-002	  2.04813E-002	  2.40050E-002
  7.68000E-001	  2.83028E-002	  3.61893E-002	  1.80072E-002	  2.28752E-002
  8.19200E-001	  2.58692E-002	  3.55144E-002	  1.31330E-002	  1.96906E-002
  9.21600E-001	  2.28601E-002	  3.11247E-002	  9.37497E-003	  1.47261E-002
  1.02400E+000	  2.16613E-002	  2.74646E-002	  3.38964E-003	  1.07891E-002
  1.12640E+000	  1.17246E-002	  2.38875E-002	 -3.90122E-003	  8.08351E-003
  1.22880E+000	  2.86754E-003	  1.86405E-002	 -8.48683E-003	  1.06919E-002
  1.33120E+000	  9.83493E-005	  1.03505E-002	 -3.81139E-003	  1.05088E-002
  1.43360E+000	 -1.51179E-003	  4.89911E-003	 -8.73838E-004	  1.02884E-002
  1.53600E+000	 -1.22050E-003	 -5.88966E-004	  1.45511E-004	  1.11853E-002
  1.63840E+000	  8.22432E-003	  3.82611E-004	  3.10695E-003	  5.74643E-003
  1.84320E+000	  1.30788E-002	  3.96850E-003	  3.04149E-003	  8.08718E-004
  2.04800E+000	  1.06742E-002	  1.37116E-002	  3.34575E-003	 -5.00427E-004
  2.25280E+000	  9.54062E-003	  1.29851E-002	  2.86372E-003	 -1.99313E-003
  2.45760E+000	  4.69826E-003	  1.02174E-002	 -9.52632E-004	 -5.90093E-003
  2.66240E+000	  2.07463E-004	  3.57061E-003	  2.53428E-003	 -1.04743E-002
  2.86720E+000	 -1.66016E-003	  3.76133E-003	 -1.91033E-003	 -1.17267E-002
  3.07200E+000	 -6.45346E-003	  6.89677E-003	 -7.05285E-003	 -1.64979E-002
  3.27680E+000	 -5.69274E-003	  2.80715E-003	 -4.14947E-003	 -1.50848E-002
  3.68640E+000	 -4.20120E-003	 -8.50232E-003	  2.40776E-005	  7.20633E-003
  4.09600E+000	 -9.39942E-003	 -7.82880E-003	  3.14819E-004	  4.20431E-003
  4.50560E+000	 -1.26566E-002	 -1.61498E-003	  1.71863E-003	 -2.42138E-003
  4.91520E+000	 -7.23358E-003	  1.14642E-003	  7.58103E-003	 -8.19804E-003
  5.32480E+000	  1.50256E-003	 -3.99757E-004	 -3.01040E-004	 -1.44818E-002
  5.73440E+000	  1.32932E-003	  1.52992E-002	  6.39071E-003	 -8.19592E-003
  6.14400E+000	  3.40592E-003	  8.21267E-003	  2.29286E-003	  8.70000E-003
  6.55360E+000	  8.74446E-003	  1.11804E-002	  3.82896E-003	  7.12892E-003
  7.37280E+000	  7.73823E-003	  1.17802E-002	  3.14598E-003	  5.18687E-003
  8.19200E+000	  1.62794E-003	  5.56905E-003	  6.03701E-004	  6.20020E-003
  9.01120E+000	  1.01178E-002	 -3.93184E-003	  2.39288E-003	 -5.10572E-003
  9.83040E+000	  2.28129E-003	 -6.37967E-004	 -5.80714E-003	 -8.23107E-003
  1.06496E+001	 -3.01825E-003	 -7.63415E-003	 -7.76688E-003	  5.61492E-003
  1.14688E+001	 -4.23790E-003	 -1.20228E-002	 -1.23020E-002	  1.02920E-002
  1.22880E+001	 -2.08031E-003	 -5.76115E-003	 -6.01901E-003	  8.92063E-003
  1.31072E+001	  3.85939E-003	  3.55348E-003	 -1.91312E-003	 -3.86482E-003
  1.47456E+001	 -9.41846E-004	 -2.71035E-004	  1.10489E-002	  1.04236E-003
  1.63840E+001	 -1.18401E-003	  6.38681E-003	 -6.24385E-004	 -1.08024E-002
  1.80224E+001	 -3.89006E-003	  6.92292E-003	  2.21619E-003	 -9.84985E-004
  1.96608E+001	  3.01240E-003	  8.87777E-005	 -1.18096E-003	  4.12261E-003
  2.12992E+001	 -3.02737E-003	  1.27832E-002	 -2.15836E-003	  6.85887E-003
  2.29376E+001	 -3.58749E-003	 -9.57740E-004	 -1.28172E-003	 -4.30961E-004
  2.45760E+001	 -5.86706E-003	  1.76637E-003	 -4.29494E-003	 -3.25623E-003
  2.62144E+001	 -1.16535E-003	 -9.67524E-004	 -6.28641E-003	  4.28135E-003
  2.94912E+001	  2.16249E-003	 -1.09906E-002	  1.11996E-003	  4.31511E-004
  3.27680E+001	  2.17343E-003	  5.48323E-003	  1.98872E-003	 -8.19079E-004
  3.60448E+001	  1.84907E-003	 -7.62057E-003	  3.38801E-004	 -6.00616E-003
  3.93216E+001	  3.90943E-003	  7.49364E-003	  1.69889E-004	  1.63075E-004
  4.25984E+001	 -2.97857E-004	 -2.72212E-003	 -4.57681E-003	  1.92744E-003
  4.58752E+001	 -1.29836E-003	 -1.50378E-003	 -3.21924E-004	 -1.86511E-003
  4.91520E+001	 -2.56450E-003	 -1.69353E-003	 -3.40105E-003	 -2.23353E-003
  5.24288E+001	  1.43665E-004	  1.72223E-003	 -2.74842E-003	  3.61271E-003
  5.89824E+001	 -2.73674E-003	 -2.13864E-003	 -1.20200E-004	 -2.53988E-003
  6.55360E+001	  1.19025E-003	 -1.98551E-004	 -1.32223E-003	 -4.58549E-004
  7.20896E+001	  1.30535E-003	  1.94383E-003	 -7.64377E-004	  3.97624E-003
  7.86432E+001	 -4.15509E-004	 -3.50737E-003	  2.54381E-003	  3.43448E-003
  8.51968E+001	 -2.82073E-003	 -1.10119E-004	  8.41085E-005	  7.83367E-004
  9.17504E+001	 -1.34706E-003	 -3.86456E-003	  1.10856E-003	 -5.66773E-003
  9.83040E+001	  1.55158E-003	 -1.80169E-004	  2.46415E-003	  1.20929E-003
  1.04858E+002	 -1.05176E-003	 -9.88603E-004	  1.74483E-003	 -1.49987E-003
  1.17965E+002	  5.48524E-004	 -2.26621E-003	 -1.39604E-003	 -1.92326E-003
  1.31072E+002	  5.56357E-004	 -3.28091E-003	 -3.02847E-003	  7.45461E-004
  1.44179E+002	 -3.17941E-003	 -1.83105E-003	 -1.47205E-003	  4.03294E-003
  1.57286E+002	 -1.62580E-003	 -3.59031E-003	  1.75850E-003	  2.23175E-003
  1.70394E+002	 -8.70568E-005	  1.52661E-003	 -1.11547E-003	 -2.51325E-003
  1.83501E+002	 -1.52792E-003	 -1.29674E-003	  1.35311E-003	 -3.58274E-003
  1.96608E+002	  2.42750E-003	 -3.50181E-003	 -3.25302E-004	 -9.97102E-004
  2.09715E+002	  1.42438E-003	 -6.81134E-004	 -3.86295E-003	 -5.17826E-004
  2.35930E+002	 -2.34228E-003	  1.62192E-003	 -7.33363E-004	 -8.08797E-004
  2.62144E+002	  6.08987E-004	  4.37318E-004	  3.35490E-003	 -2.62702E-003
  2.88358E+002	 -1.91185E-003	  2.57919E-003	  5.50727E-004	  1.91651E-003
  3.14573E+002	  5.30913E-004	  2.87902E-003	 -2.20931E-003	 -1.57067E-003
  3.40787E+002	 -6.55646E-004	 -9.37523E-004	  5.27627E-004	 -8.50860E-004
  3.67002E+002	 -4.33049E-004	 -3.06860E-003	  6.94272E-004	  7.98513E-004
  3.93216E+002	 -1.34564E-003	 -1.03034E-003	 -2.20872E-003	  2.89311E-004

"Count Rate"
       0.01311	     132.29370	     160.29358	     129.08936	     128.55530
       0.02621	     169.37256	     177.45972	     134.58252	     122.14661
       0.03932	     122.90955	     138.77869	     113.37280	     119.01855
       0.05243	     144.72961	     138.54980	     160.90393	     157.85217
       0.06554	     160.21729	     149.38354	     170.21179	     145.11108
       0.07864	     139.16016	     146.56067	     125.50354	     159.75952
       0.09175	     153.88489	     172.04285	     124.20654	     144.72961
       0.10486	     153.88489	     153.88489	     129.01306	     130.23376
       0.11796	     153.19824	     150.60425	     117.26379	     152.20642
       0.13107	     183.86841	     155.86853	     139.38904	     141.22009
       0.14418	     139.00757	     145.49255	     137.32910	     146.63696
       0.15729	     132.37000	     151.13831	     132.14111	     127.18201
       0.17039	     194.32068	     139.38904	     146.56067	     150.14648
       0.18350	     119.78149	     142.44080	     134.73511	     155.25818
       0.19661	     173.56873	     150.14648	     178.52783	     142.44080
       0.20972	     136.56616	     150.14648	     126.49536	     121.30737
       0.22282	     140.53345	     129.01306	     144.27185	     149.99390
       0.23593	     120.92590	     145.03479	     134.58252	     135.42175
       0.24904	     141.06750	     122.90955	     136.94763	     148.23914
       0.26214	     146.25549	     158.15735	     156.25000	     153.04565
       0.27525	     132.21741	     138.09204	     175.78125	     146.94214
       0.28836	     128.86047	     118.40820	     146.33179	     118.94226
       0.30147	     151.21460	     147.01843	     125.42725	     112.22839
       0.31457	     120.62073	     166.16821	     125.65613	     131.91223
       0.32768	     144.80591	     191.95557	     129.24194	     166.32080
       0.34079	     164.94751	     135.19287	     150.90942	     124.13025
       0.35389	     115.20386	     132.37000	     138.32092	     122.29919
       0.36700	     152.66418	     140.38086	     116.72974	     150.14648
       0.38011	     192.33704	     165.25269	     155.41077	     147.93396
       0.39322	     153.73230	     175.24719	     133.74329	     166.54968
       0.40632	     129.24194	     173.72131	     118.33191	     141.60156
       0.41943	     115.66162	     141.60156	     137.40540	     130.38635
       0.43254	     160.67505	     129.54712	     157.31812	     110.32104
       0.44564	     157.85217	     163.72681	     141.98303	     116.27197
       0.45875	     152.58789	     117.79785	     124.66431	     133.36182
       0.47186	     157.24182	     130.99670	     122.68066	     130.53894
       0.48497	     135.26917	     158.61511	     117.11121	     154.03748
       0.49807	     142.66968	     131.68335	     133.20923	     120.31555
       0.51118	     120.23926	     127.02942	     129.24194	     119.09485
       0.52429	     168.68591	     139.38904	     149.53613	     144.72961
       0.53740	     157.01294	     107.49817	     179.29077	     162.27722
       0.55050	     143.81409	     170.59326	     148.31543	     138.62610
       0.56361	     180.66406	     138.93127	     129.01306	     143.66150
       0.57672	     167.84668	     133.51440	     141.37268	     132.29370
       0.58982	     168.38074	     145.87402	     105.97229	     123.90137
       0.60293	     154.03748	     123.51990	     145.33997	     140.53345
       0.61604	     127.25830	     160.06470	     136.87134	     131.83594
       0.62915	     129.92859	     156.17371	     153.04565	     165.86304
       0.64225	     186.76758	     145.03479	     124.20654	     153.50342
       0.65536	     143.20374	     175.24719	     126.64795	     126.95313
       0.66847	     153.96118	     128.86047	     137.86316	     155.25818
       0.68157	     179.97742	     184.32617	     126.80054	     158.53882
       0.69468	     166.70227	     169.44885	     152.96936	     128.63159
       0.70779	     153.57971	     142.59338	     155.79224	     153.12195
       0.72090	     158.46252	     169.21997	     133.89587	     137.86316
       0.73400	     132.29370	     130.84412	     142.28821	     140.53345
       0.74711	     144.57703	     140.60974	     118.48450	     138.93127
       0.76022	     153.19824	     118.33191	     144.11926	     151.51978
       0.77332	     156.70776	     139.31274	     137.32910	     131.37817
       0.78643	     116.57715	     121.07849	     152.28271	     153.96118
       0.79954	     140.15198	     182.18994	     146.71326	     134.20105
       0.81265	     142.13562	     139.46533	     179.29077	     113.83057
       0.82575	     122.68066	     146.25549	     143.66150	     119.78149
       0.83886	     156.70776	     159.75952	     149.76501	     146.71326
       0.85197	     147.09473	     174.78943	     152.89307	      98.64807
       0.86508	     157.77588	     121.07849	     144.65332	     124.74060
       0.87818	     173.79761	     134.81140	     151.44348	      96.81702
       0.89129	     160.21729	     106.58264	     113.14392	     154.72412
       0.90440	     164.10828	     152.66418	     134.42993	     153.04565
       0.91750	     153.19824	     203.32336	     127.48718	     136.48987
       0.93061	     206.60400	     220.48950	     121.07849	     130.99670

Monitor Diode	      1.00
