ALV-7004/USB-FAST
Date :	"3/14/2024"
Time :	"12:30:28 PM"
Samplename : 	""
SampMemo(0) : 	""
SampMemo(1) : 	""
SampMemo(2) : 	""
SampMemo(3) : 	""
SampMemo(4) : 	""
SampMemo(5) : 	""
SampMemo(6) : 	""
SampMemo(7) : 	""
SampMemo(8) : 	""
SampMemo(9) : 	""
Temperature [K] :	     298.16000
Viscosity [cp]  :	       0.89000
Refractive Index:	       1.33200
Wavelength [nm] :	       0.00000
Angle [°]       :	       0.00000
Duration [s]    :	         1
FloatDur [ms]   :	          944
Stop TP [ms]   :	      3163
Runs            :	         1
Mode            :	"A-CH0+1  A-CH2+3 "
MeanCR0 [kHz]   :	     152.68961
MeanCR1 [kHz]   :	     151.33858
MeanCR2 [kHz]   :	     148.64073
MeanCR3 [kHz]   :	     146.85313

"Correlation"
  3.12500E-006	 -1.00000E+000	 -1.00000E+000	 -1.00000E+000	 -1.00000E+000
  6.25000E-006	 -1.00000E+000	 -1.00000E+000	 -1.00000E+000	 -1.00000E+000
  9.37500E-006	 -1.00000E+000	 -1.00000E+000	 -1.00000E+000	 -1.00000E+000
  1.25000E-005	 -1.00000E+000	 -1.00000E+000	 -1.00000E+000	 -1.00000E+000
  1.56250E-005	 -1.00000E+000	 -1.00000E+000	 -1.00000E+000	 -1.00000E+000
  1.87500E-005	 -1.00000E+000	 -1.00000E+000	 -1.00000E+000	 -1.00000E+000
  2.18750E-005	 -9.85456E-001	 -3.33775E-001	 -4.93539E-001	 -9.21385E-001
  2.50000E-005	  5.47215E+000	  4.99602E+000	  5.35378E+000	  9.91183E+000
  2.81250E-005	  1.48705E+000	  1.10231E+000	  1.53230E+000	  4.20434E+000
  3.12500E-005	  7.59843E-001	  6.58159E-001	  7.80286E-001	  2.11317E+000
  3.43750E-005	  8.32564E-001	  6.28549E-001	  6.57508E-001	  2.19179E+000
  3.75000E-005	  6.14401E-001	  8.65429E-001	  6.26813E-001	  2.06600E+000
  4.06250E-005	  6.43490E-001	  7.17379E-001	  5.19382E-001	  1.15406E+000
  4.37500E-005	  5.12592E-001	  4.36084E-001	  9.49106E-001	  1.23268E+000
  4.68750E-005	  5.99857E-001	  4.50889E-001	  6.11466E-001	  1.32702E+000
  5.00000E-005	  5.70769E-001	  4.80499E-001	  4.96361E-001	  1.30343E+000
  5.62500E-005	  4.25327E-001	  6.87769E-001	  6.95876E-001	  9.18217E-001
  6.25000E-005	  5.63497E-001	  4.43487E-001	  5.50077E-001	  7.76709E-001
  6.87500E-005	  5.78041E-001	  5.02707E-001	  4.73340E-001	  6.90232E-001
  7.50000E-005	  4.76232E-001	  4.95304E-001	  4.73340E-001	  8.31740E-001
  8.12500E-005	  4.98048E-001	  5.17512E-001	  6.03792E-001	  5.95894E-001
  8.75000E-005	  5.48953E-001	  5.54524E-001	  6.80529E-001	  7.60986E-001
  9.37500E-005	  6.07129E-001	  5.84134E-001	  3.50562E-001	  6.66648E-001
  1.00000E-004	  5.34408E-001	  6.28549E-001	  5.23219E-001	  6.78440E-001
  1.12500E-004	  4.68960E-001	  4.06474E-001	  5.80771E-001	  5.68378E-001
  1.25000E-004	  5.23500E-001	  4.61993E-001	  5.92282E-001	  6.90232E-001
  1.37500E-004	  4.58051E-001	  5.13810E-001	  5.00198E-001	  5.33001E-001
  1.50000E-004	  5.85313E-001	  4.95304E-001	  4.34972E-001	  4.93694E-001
  1.62500E-004	  4.98048E-001	  3.62059E-001	  4.27298E-001	  5.48724E-001
  1.75000E-004	  4.76232E-001	  5.17512E-001	  4.69503E-001	  5.17278E-001
  1.87500E-004	  5.67133E-001	  5.13810E-001	  5.57750E-001	  5.64448E-001
  2.00000E-004	  5.74404E-001	  4.60142E-001	  5.42403E-001	  5.42828E-001
  2.25000E-004	  4.85321E-001	  5.17511E-001	  4.92524E-001	  5.17278E-001
  2.50000E-004	  4.16237E-001	  4.36084E-001	  5.04034E-001	  4.95659E-001
  2.75000E-004	  5.19864E-001	  4.78648E-001	  4.33053E-001	  5.60516E-001
  3.00000E-004	  4.65323E-001	  4.84200E-001	  4.90605E-001	  4.13112E-001
  3.25000E-004	  5.25318E-001	  4.36084E-001	  4.54156E-001	  5.72309E-001
  3.50000E-004	  4.72595E-001	  4.95304E-001	  4.44564E-001	  6.45028E-001
  3.75000E-004	  3.98056E-001	  5.54524E-001	  4.50319E-001	  4.93693E-001
  4.00000E-004	  3.83512E-001	  5.58224E-001	  5.38565E-001	  5.26121E-001
  4.50000E-004	  4.49869E-001	  5.07332E-001	  5.25136E-001	  5.55602E-001
  5.00000E-004	  5.00774E-001	  4.56440E-001	  5.63504E-001	  5.18260E-001
  5.50000E-004	  4.40779E-001	  5.18436E-001	  4.81972E-001	  4.82883E-001
  6.00000E-004	  4.30780E-001	  5.17521E-001	  4.66625E-001	  4.44558E-001
  6.50000E-004	  4.63505E-001	  4.83285E-001	  4.54155E-001	  5.33000E-001
  7.00000E-004	  4.88048E-001	  4.30541E-001	  4.78135E-001	  4.89762E-001
  7.50000E-004	  4.28053E-001	  4.82359E-001	  4.88686E-001	  4.63229E-001
  8.00000E-004	  4.34415E-001	  4.80507E-001	  5.07869E-001	  4.91737E-001
  9.00000E-004	  4.19416E-001	  4.47196E-001	  4.69021E-001	  4.71089E-001
  1.00000E-003	  4.76684E-001	  5.33250E-001	  5.00675E-001	  5.05484E-001
  1.10000E-003	  4.93501E-001	  4.52748E-001	  4.78134E-001	  4.77477E-001
  1.20000E-003	  4.58504E-001	  4.68941E-001	  4.60868E-001	  5.12363E-001
  1.30000E-003	  4.67139E-001	  4.38868E-001	  4.98757E-001	  4.85339E-001
  1.40000E-003	  4.86229E-001	  5.38340E-001	  4.67583E-001	  4.91235E-001
  1.50000E-003	  4.84865E-001	  3.94916E-001	  4.82930E-001	  5.06958E-001
  1.60000E-003	  4.70546E-001	  4.69170E-001	  4.92290E-001	  4.73554E-001
  1.80000E-003	  4.36458E-001	  4.77498E-001	  4.84377E-001	  4.55129E-001
  2.00000E-003	  4.79408E-001	  4.58297E-001	  5.23465E-001	  4.92226E-001
  2.20000E-003	  4.51694E-001	  4.52514E-001	  4.58718E-001	  4.91980E-001
  2.40000E-003	  5.07371E-001	  4.74028E-001	  5.08357E-001	  4.60288E-001
  2.60000E-003	  4.85327E-001	  4.87213E-001	  4.76714E-001	  4.67648E-001
  2.80000E-003	  4.61693E-001	  4.37015E-001	  4.63045E-001	  5.12606E-001
  3.00000E-003	  4.68521E-001	  4.96929E-001	  4.96138E-001	  4.75755E-001
  3.20000E-003	  4.72720E-001	  4.75179E-001	  4.94094E-001	  4.77112E-001
  3.60000E-003	  4.58857E-001	  4.64076E-001	  5.14837E-001	  4.87921E-001
  4.00000E-003	  4.45222E-001	  4.62803E-001	  4.67596E-001	  4.81288E-001
  4.40000E-003	  4.72265E-001	  4.69974E-001	  4.64838E-001	  4.96765E-001
  4.80000E-003	  4.53176E-001	  4.49039E-001	  4.69395E-001	  4.52667E-001
  5.20000E-003	  4.63516E-001	  4.48230E-001	  4.72872E-001	  4.80551E-001
  5.60000E-003	  4.69425E-001	  4.59565E-001	  4.58723E-001	  4.73918E-001
  6.00000E-003	  4.59198E-001	  4.57830E-001	  4.69275E-001	  4.89507E-001
  6.40000E-003	  4.66176E-001	  4.40297E-001	  4.72872E-001	  4.66425E-001
  7.20000E-003	  4.74528E-001	  4.25328E-001	  4.76349E-001	  4.74840E-001
  8.00000E-003	  4.45610E-001	  4.57599E-001	  4.66577E-001	  4.83807E-001
  8.80000E-003	  4.71754E-001	  4.51989E-001	  4.69035E-001	  4.74410E-001
  9.60000E-003	  4.48745E-001	  4.54071E-001	  4.71564E-001	  4.67347E-001
  1.04000E-002	  4.49086E-001	  4.50370E-001	  4.61083E-001	  4.69558E-001
  1.12000E-002	  4.41880E-001	  4.29492E-001	  4.53169E-001	  4.57090E-001
  1.20000E-002	  4.43471E-001	  4.51295E-001	  4.63421E-001	  4.65259E-001
  1.28000E-002	  4.28264E-001	  4.51333E-001	  4.67190E-001	  4.59272E-001
  1.44000E-002	  4.38188E-001	  4.30485E-001	  4.49104E-001	  4.51319E-001
  1.60000E-002	  4.31703E-001	  4.32191E-001	  4.44278E-001	  4.43529E-001
  1.76000E-002	  4.34970E-001	  4.31266E-001	  4.47885E-001	  4.44972E-001
  1.92000E-002	  4.16458E-001	  4.33936E-001	  4.45707E-001	  4.49814E-001
  2.08000E-002	  4.26145E-001	  4.15632E-001	  4.36384E-001	  4.34919E-001
  2.24000E-002	  4.23683E-001	  4.14331E-001	  4.32997E-001	  4.49261E-001
  2.40000E-002	  4.17206E-001	  4.09386E-001	  4.25363E-001	  4.35042E-001
  2.56000E-002	  4.09574E-001	  4.12105E-001	  4.24496E-001	  4.30357E-001
  2.88000E-002	  4.03694E-001	  4.08529E-001	  4.22902E-001	  4.18349E-001
  3.20000E-002	  3.84377E-001	  3.92134E-001	  4.09892E-001	  4.15119E-001
  3.52000E-002	  3.82942E-001	  3.89653E-001	  4.05940E-001	  3.97890E-001
  3.84000E-002	  3.65311E-001	  3.71392E-001	  3.94549E-001	  3.99441E-001
  4.16000E-002	  3.70879E-001	  3.72790E-001	  3.79730E-001	  3.91865E-001
  4.48000E-002	  3.54771E-001	  3.64370E-001	  3.77477E-001	  3.81854E-001
  4.80000E-002	  3.54625E-001	  3.48962E-001	  3.72246E-001	  3.74631E-001
  5.12000E-002	  3.46441E-001	  3.41540E-001	  3.63857E-001	  3.71958E-001
  5.76000E-002	  3.29905E-001	  3.32146E-001	  3.54429E-001	  3.49409E-001
  6.40000E-002	  3.13359E-001	  3.19489E-001	  3.35633E-001	  3.38852E-001
  7.04000E-002	  3.11687E-001	  3.09202E-001	  3.24106E-001	  3.32826E-001
  7.68000E-002	  2.99773E-001	  2.91084E-001	  3.12486E-001	  3.10758E-001
  8.32000E-002	  2.86006E-001	  2.80609E-001	  2.99022E-001	  2.95329E-001
  8.96000E-002	  2.74836E-001	  2.70405E-001	  2.88325E-001	  2.87623E-001
  9.60000E-002	  2.57594E-001	  2.57018E-001	  2.79255E-001	  2.75390E-001
  1.02400E-001	  2.47958E-001	  2.48958E-001	  2.71767E-001	  2.67317E-001
  1.15200E-001	  2.29711E-001	  2.32567E-001	  2.54123E-001	  2.44218E-001
  1.28000E-001	  2.09923E-001	  2.17820E-001	  2.35924E-001	  2.25396E-001
  1.40800E-001	  1.96320E-001	  2.04553E-001	  2.19217E-001	  2.15464E-001
  1.53600E-001	  1.81387E-001	  1.89871E-001	  2.03454E-001	  2.00939E-001
  1.66400E-001	  1.68226E-001	  1.78681E-001	  1.89511E-001	  1.85760E-001
  1.79200E-001	  1.64650E-001	  1.66222E-001	  1.82067E-001	  1.73763E-001
  1.92000E-001	  1.49685E-001	  1.56939E-001	  1.73315E-001	  1.63101E-001
  2.04800E-001	  1.41703E-001	  1.48559E-001	  1.66506E-001	  1.53725E-001
  2.30400E-001	  1.23952E-001	  1.33576E-001	  1.46007E-001	  1.40340E-001
  2.56000E-001	  1.12626E-001	  1.21933E-001	  1.31979E-001	  1.27264E-001
  2.81600E-001	  9.73698E-002	  1.10923E-001	  1.18302E-001	  1.14801E-001
  3.07200E-001	  8.74980E-002	  1.00884E-001	  1.05130E-001	  1.02594E-001
  3.32800E-001	  7.99480E-002	  9.06552E-002	  9.71924E-002	  9.32939E-002
  3.58400E-001	  7.23043E-002	  8.15799E-002	  8.54403E-002	  8.37241E-002
  3.84000E-001	  6.78145E-002	  7.60639E-002	  8.02960E-002	  7.65263E-002
  4.09600E-001	  6.51453E-002	  7.05224E-002	  7.29903E-002	  6.90221E-002
  4.60800E-001	  5.43835E-002	  5.95265E-002	  6.13041E-002	  5.65373E-002
  5.12000E-001	  4.70376E-002	  4.96744E-002	  5.43795E-002	  4.67955E-002
  5.63200E-001	  4.25508E-002	  4.27020E-002	  4.27929E-002	  4.23813E-002
  6.14400E-001	  4.50845E-002	  3.26143E-002	  3.37416E-002	  3.39806E-002
  6.65600E-001	  4.20151E-002	  2.80393E-002	  2.89074E-002	  2.71440E-002
  7.16800E-001	  4.01711E-002	  2.38612E-002	  2.78753E-002	  1.86564E-002
  7.68000E-001	  3.48199E-002	  2.25006E-002	  2.90357E-002	  1.26776E-002
  8.19200E-001	  2.82153E-002	  2.26473E-002	  2.44903E-002	  1.16311E-002
  9.21600E-001	  2.53313E-002	  2.40908E-002	  1.69931E-002	  6.10344E-003
  1.02400E+000	  2.37239E-002	  1.90819E-002	  9.95449E-003	  3.65633E-003
  1.12640E+000	  1.55327E-002	  1.16949E-002	  3.01797E-003	 -1.00680E-004
  1.22880E+000	  1.07382E-002	  6.10792E-003	 -3.27089E-003	  1.10599E-003
  1.33120E+000	  6.38469E-003	  7.82942E-003	 -4.76891E-003	 -4.52640E-003
  1.43360E+000	  1.87333E-003	  5.22353E-003	 -5.33785E-003	 -5.78411E-003
  1.53600E+000	  1.04545E-003	  4.36641E-003	 -1.80050E-003	 -2.57268E-003
  1.63840E+000	 -2.54685E-003	  3.98519E-003	 -4.97253E-005	  2.12942E-003
  1.84320E+000	 -3.14592E-003	  6.46069E-003	  7.38941E-003	  3.77437E-003
  2.04800E+000	 -3.01804E-003	  8.36104E-003	  5.31296E-003	 -3.95705E-005
  2.25280E+000	 -3.69521E-003	  1.41430E-003	  5.79808E-003	 -7.56281E-004
  2.45760E+000	 -5.24795E-003	 -7.49391E-004	  8.54844E-003	  5.94346E-004
  2.66240E+000	 -2.69380E-003	  3.04515E-003	  3.88383E-003	 -1.78518E-003
  2.86720E+000	  1.80647E-003	  8.73010E-003	  9.90645E-003	  8.39576E-004
  3.07200E+000	  9.95910E-003	  9.30070E-003	  3.82683E-003	  7.06461E-003
  3.27680E+000	  1.50720E-002	  9.10196E-003	  1.40195E-003	  8.47035E-003
  3.68640E+000	  1.33197E-002	  1.10979E-003	 -1.23325E-003	  1.65394E-002
  4.09600E+000	  6.19208E-003	  3.21390E-003	  3.73047E-003	  8.08671E-003
  4.50560E+000	  9.85322E-003	 -1.85474E-003	 -7.40093E-003	  5.65852E-003
  4.91520E+000	  4.44287E-003	 -4.74348E-003	 -1.00212E-002	  2.16532E-004
  5.32480E+000	 -9.40524E-003	 -5.15026E-003	 -1.42144E-002	 -6.50737E-003
  5.73440E+000	 -5.34987E-003	 -5.85636E-003	 -1.24471E-002	 -1.00647E-002
  6.14400E+000	 -3.77068E-003	  4.23057E-004	 -1.05899E-002	 -5.30793E-003
  6.55360E+000	  8.54226E-004	 -2.29999E-003	 -6.79885E-003	  5.30745E-003
  7.37280E+000	  1.18364E-003	 -5.35781E-003	 -7.38185E-003	  9.04430E-003
  8.19200E+000	  1.98064E-003	  8.45038E-004	 -3.29115E-003	  3.20531E-003
  9.01120E+000	  2.57259E-003	  1.31130E-002	 -1.30699E-004	  7.45992E-003
  9.83040E+000	  1.50625E-003	  6.43808E-003	  2.22854E-004	  1.76184E-003
  1.06496E+001	 -8.46813E-005	  1.85913E-004	  2.90088E-004	 -2.39913E-003
  1.14688E+001	  1.40637E-003	  5.37745E-003	 -1.70995E-003	  4.58844E-006
  1.22880E+001	  4.41197E-003	 -1.04300E-003	  4.65449E-004	  3.43598E-003
  1.31072E+001	 -4.43512E-003	  2.42033E-003	  5.27518E-003	  3.90995E-003
  1.47456E+001	  1.10146E-003	 -1.30832E-003	  7.15710E-003	 -8.03594E-004
  1.63840E+001	  6.08244E-004	 -4.50455E-003	  4.79567E-004	  4.08088E-003
  1.80224E+001	 -4.87887E-003	 -5.52731E-004	 -2.09812E-003	  2.21410E-003
  1.96608E+001	  2.98564E-003	 -2.93070E-004	 -6.36645E-003	 -1.40424E-003
  2.12992E+001	 -3.07686E-003	  5.97504E-003	 -4.40834E-003	 -8.14885E-003
  2.29376E+001	  9.25716E-003	  5.07493E-003	  3.61918E-005	 -5.81346E-003
  2.45760E+001	  1.22320E-003	  2.80417E-003	  1.70918E-003	 -3.94018E-004
  2.62144E+001	  2.91169E-003	  7.89046E-004	  2.21197E-003	 -1.07596E-003
  2.94912E+001	  1.97263E-003	 -2.30406E-003	 -5.38441E-004	  9.97279E-004
  3.27680E+001	 -5.92338E-003	 -3.31644E-003	  1.27224E-003	  5.10713E-003
  3.60448E+001	 -2.03748E-003	  1.50921E-004	 -3.56813E-004	 -3.78979E-003
  3.93216E+001	  3.27809E-004	 -9.42417E-004	 -2.13862E-003	 -6.01355E-003
  4.25984E+001	 -5.58945E-003	 -2.99899E-003	 -3.32322E-003	 -6.59252E-003
  4.58752E+001	  4.69094E-004	 -3.86286E-003	 -1.56848E-003	 -2.01969E-003
  4.91520E+001	 -1.25678E-004	 -4.80056E-003	  2.20617E-003	  1.21928E-003
  5.24288E+001	 -4.36842E-004	 -5.09162E-004	 -1.56171E-003	  1.33957E-004
  5.89824E+001	 -3.55096E-003	 -1.11092E-003	  1.41424E-003	  2.03467E-003
  6.55360E+001	  2.40486E-003	  1.80017E-003	 -2.43607E-004	 -1.27097E-003
  7.20896E+001	 -1.10797E-004	 -3.07417E-003	  3.07151E-003	 -9.89396E-004
  7.86432E+001	 -1.50669E-004	  3.37047E-003	 -2.16545E-003	 -2.09532E-003
  8.51968E+001	  2.25609E-003	  1.88499E-003	  6.65492E-004	 -1.87151E-003
  9.17504E+001	 -6.35351E-004	  6.61644E-003	 -2.68954E-003	  4.26373E-003
  9.83040E+001	 -1.12969E-003	 -1.15673E-003	 -1.16513E-003	  9.33936E-004
  1.04858E+002	  1.73505E-003	 -1.09086E-003	 -2.93675E-003	 -1.00155E-003
  1.17965E+002	  3.96179E-004	 -2.75147E-003	  7.65894E-004	  1.26890E-003
  1.31072E+002	 -6.89125E-003	 -1.76807E-003	  3.41435E-004	 -6.88482E-004
  1.44179E+002	 -1.34868E-003	 -3.07437E-003	  3.37004E-003	 -4.38052E-003
  1.57286E+002	 -3.26245E-003	  2.64590E-003	 -5.87306E-004	  3.08844E-003
  1.70394E+002	 -3.91081E-004	  5.88703E-004	 -3.04222E-003	  1.55190E-003
  1.83501E+002	  2.91894E-003	  2.71238E-003	 -3.99022E-004	  3.95225E-003
  1.96608E+002	  7.71394E-004	  6.92523E-004	  1.29592E-003	 -1.19836E-003
  2.09715E+002	 -1.65228E-004	  4.39288E-005	 -1.28403E-003	 -5.84461E-004
  2.35930E+002	 -1.73720E-003	 -1.31006E-004	 -4.38783E-004	 -2.04432E-003
  2.62144E+002	 -1.61746E-003	 -1.47026E-004	 -5.30111E-004	 -3.75789E-003
  2.88358E+002	  3.42915E-003	 -8.50271E-004	  1.00127E-003	  1.67300E-003
  3.14573E+002	  8.36879E-004	  2.28074E-003	 -4.34570E-004	  1.33649E-003
  3.40787E+002	 -2.11023E-003	  2.72898E-004	  1.28655E-003	  6.51969E-004
  3.67002E+002	  3.54211E-003	 -1.70051E-003	 -7.69265E-004	  2.77396E-004
  3.93216E+002	 -3.30397E-004	  1.47185E-003	  3.87013E-005	 -1.39410E-003

"Count Rate"
       0.01311	     151.44348	     180.20630	     148.31543	     139.23645
       0.02621	     134.50623	     114.36462	     133.36182	     159.98840
       0.03932	     138.01575	     155.63965	     162.04834	     161.05652
       0.05243	     144.27185	     156.25000	     127.02942	     128.32642
       0.06554	     136.79504	     147.55249	     168.99109	     128.63159
       0.07864	     124.89319	     139.99939	     163.72681	     164.87122
       0.09175	     137.17651	     181.88477	     156.93665	     135.57434
       0.10486	     179.59595	     138.32092	     148.16284	     171.43250
       0.11796	     123.06213	     131.53076	     168.53333	     156.17371
       0.13107	     141.98303	     158.15735	     185.77576	     160.82764
       0.14418	     133.89587	     140.22827	     168.15186	     142.21191
       0.15729	     148.16284	     138.70239	     137.10022	     132.98035
       0.17039	     195.69397	     119.17114	     154.26636	     121.15479
       0.18350	     222.62573	     176.69678	     137.71057	     133.59070
       0.19661	     145.33997	     131.91223	     142.82227	     139.31274
       0.20972	     150.37537	     126.64795	     132.52258	     147.47620
       0.22282	     147.85767	     143.12744	     113.75427	     121.68884
       0.23593	     145.33997	     130.38635	     127.18201	     130.46265
       0.24904	     164.71863	     123.67249	     163.87939	     145.64514
       0.26214	     148.84949	     151.13831	     134.73511	     183.33435
       0.27525	     145.87402	     178.90930	     181.50330	     120.54443
       0.28836	     146.25549	     161.05652	     144.19556	     125.96130
       0.30147	     131.98853	     122.98584	     110.93140	     160.14099
       0.31457	     111.77063	     143.73779	     156.40259	     157.62329
       0.32768	     154.03748	     111.00769	     176.77307	     123.97766
       0.34079	     136.33728	     157.54700	     134.65881	     145.03479
       0.35389	     168.91479	     150.22278	     131.22559	     146.94214
       0.36700	     181.50330	     151.74866	     130.38635	     130.46265
       0.38011	     146.56067	     147.47620	     154.19006	     132.21741
       0.39322	     185.62317	     157.47070	     169.98291	     135.80322
       0.40632	     131.68335	     139.84680	     167.46521	     129.01306
       0.41943	     146.63696	     171.43250	     131.22559	     160.21729
       0.43254	     131.83594	     159.30176	     139.54163	     154.34265
       0.44564	     169.60144	     186.76758	     153.80859	     149.99390
       0.45875	     145.79773	     158.76770	     136.94763	     124.58801
       0.47186	     191.49780	     139.84680	     158.38623	     162.88757
       0.48497	     141.22009	     145.72144	     155.33447	     116.65344
       0.49807	     171.89026	     152.51160	     145.72144	     132.14111
       0.51118	     150.60425	     174.02649	     138.47351	     120.54443
       0.52429	     112.22839	     127.48718	     151.29089	     124.05396
       0.53740	     167.08374	     131.22559	     170.13550	     153.50342
       0.55050	     157.77588	     125.57983	     106.96411	     131.68335
       0.56361	     153.19824	     132.21741	     148.01025	     131.60706
       0.57672	     148.08655	     178.75671	     157.01294	     116.72974
       0.58982	     145.79773	     178.83301	     158.99658	     150.14648
       0.60293	     129.47083	     164.79492	     136.56616	     139.84680
       0.61604	     123.21472	     139.08386	     141.37268	     154.57153
       0.62915	     152.81677	     139.00757	     131.37817	     203.39966
       0.64225	     123.90137	     162.65869	     129.24194	     147.93396
       0.65536	     152.81677	     167.16003	     129.39453	     157.54700
       0.66847	     148.08655	     202.02637	     135.72693	     136.03210
       0.68157	     142.97485	     139.61792	     178.29895	     116.34827
       0.69468	     135.72693	     188.44604	     125.04578	     134.81140
       0.70779	     167.99927	     133.59070	     145.41626	     155.33447
       0.72090	     135.95581	     133.51440	     149.30725	     196.07544
       0.73400	     182.26624	     113.90686	     151.21460	     141.44897
       0.74711	     148.31543	     149.15466	     174.33167	     148.54431
       0.76022	     145.95032	     169.67773	     147.17102	     130.61523
       0.77332	     156.40259	     156.09741	     124.96948	     161.28540
       0.78643	     161.43799	     181.04553	     137.40540	     155.10559
       0.79954	     150.29907	     149.15466	     148.16284	     157.62329
       0.81265	     151.36719	     126.64795	     129.62341	     143.12744
       0.82575	     155.63965	     145.87402	     158.69141	     156.86035
       0.83886	     180.13000	     149.68872	     148.23914	     157.01294
       0.85197	     148.54431	     138.39722	     149.61243	     119.85779
       0.86508	     114.05945	     160.52246	     134.65881	     127.10571
       0.87818	     147.24731	     121.53625	     125.27466	     127.18201
       0.89129	     164.87122	     128.70789	     124.13025	     160.21729
       0.90440	     176.62048	     142.28821	     123.06213	     200.72937
       0.91750	     141.22009	     162.96387	     182.41882	     163.19275
       0.93061	     133.28552	     168.99109	     146.94214	     138.93127

Monitor Diode	      1.00
