ALV-7004/USB-FAST
Date :	"3/14/2024"
Time :	"12:34:48 PM"
Samplename : 	""
SampMemo(0) : 	""
SampMemo(1) : 	""
SampMemo(2) : 	""
SampMemo(3) : 	""
SampMemo(4) : 	""
SampMemo(5) : 	""
SampMemo(6) : 	""
SampMemo(7) : 	""
SampMemo(8) : 	""
SampMemo(9) : 	""
Temperature [K] :	     298.16000
Viscosity [cp]  :	       0.89000
Refractive Index:	       1.33200
Wavelength [nm] :	       0.00000
Angle [°]       :	       0.00000
Duration [s]    :	         1
FloatDur [ms]   :	          944
Stop TP [ms]   :	      3653
Runs            :	         1
Mode            :	"A-CH0+1  A-CH2+3 "
MeanCR0 [kHz]   :	     105.62685
MeanCR1 [kHz]   :	     105.15531
MeanCR2 [kHz]   :	     102.49350
MeanCR3 [kHz]   :	     105.04405

"Correlation"
  3.12500E-006	 -1.00000E+000	 -1.00000E+000	 -1.00000E+000	 -1.00000E+000
  6.25000E-006	 -1.00000E+000	 -1.00000E+000	 -1.00000E+000	 -1.00000E+000
  9.37500E-006	 -1.00000E+000	 -1.00000E+000	 -1.00000E+000	 -1.00000E+000
  1.25000E-005	 -1.00000E+000	 -1.00000E+000	 -1.00000E+000	 -1.00000E+000
  1.56250E-005	 -1.00000E+000	 -1.00000E+000	 -1.00000E+000	 -1.00000E+000
  1.87500E-005	 -1.00000E+000	 -1.00000E+000	 -1.00000E+000	 -1.00000E+000
  2.18750E-005	 -9.69608E-001	 -3.25367E-001	 -1.60756E-001	 -9.38540E-001
  2.50000E-005	  6.50682E+000	  6.75828E+000	  5.93990E+000	  1.31973E+001
  2.81250E-005	  1.79606E+000	  1.26922E+000	  1.29178E+000	  4.90019E+000
  3.12500E-005	  1.37057E+000	  7.47914E-001	  6.46209E-001	  2.71835E+000
  3.43750E-005	  8.84302E-001	  7.78579E-001	  6.78488E-001	  2.53397E+000
  3.75000E-005	  7.93126E-001	  9.01239E-001	  5.17095E-001	  2.10374E+000
  4.06250E-005	  8.23518E-001	  4.41262E-001	  8.39881E-001	  2.41105E+000
  4.37500E-005	  8.84302E-001	  5.02592E-001	  8.07602E-001	  1.79644E+000
  4.68750E-005	  5.80383E-001	  8.09244E-001	  3.23423E-001	  1.79644E+000
  5.00000E-005	  3.67639E-001	  5.02592E-001	  1.78169E-001	  1.24330E+000
  5.62500E-005	  6.10774E-001	  5.94588E-001	  5.33234E-001	  9.82094E-001
  6.25000E-005	  5.80383E-001	  6.86583E-001	  3.23423E-001	  1.18184E+000
  6.87500E-005	  7.01950E-001	  7.32581E-001	  6.13931E-001	  8.28444E-001
  7.50000E-005	  5.95578E-001	  5.94588E-001	  7.75324E-001	  8.13079E-001
  8.12500E-005	  4.28423E-001	  4.10597E-001	  5.33234E-001	  6.74793E-001
  8.75000E-005	  3.98031E-001	  7.32581E-001	  5.00956E-001	  6.13333E-001
  9.37500E-005	  6.10774E-001	  4.25929E-001	  9.68995E-001	  7.36253E-001
  1.00000E-004	  5.80382E-001	  6.25253E-001	  4.84816E-001	  6.74793E-001
  1.12500E-004	  5.42392E-001	  5.86921E-001	  7.75324E-001	  5.51872E-001
  1.25000E-004	  4.28422E-001	  5.94588E-001	  3.55702E-001	  6.44063E-001
  1.37500E-004	  4.05629E-001	  5.86921E-001	  5.33234E-001	  5.59555E-001
  1.50000E-004	  4.81608E-001	  4.56594E-001	  4.52537E-001	  6.82475E-001
  1.62500E-004	  5.27196E-001	  5.56256E-001	  4.12189E-001	  5.82602E-001
  1.75000E-004	  5.42392E-001	  3.72265E-001	  5.25164E-001	  4.82729E-001
  1.87500E-004	  6.18372E-001	  3.72265E-001	  5.97791E-001	  3.13714E-001
  2.00000E-004	  3.82834E-001	  4.60427E-001	  4.48502E-001	  4.51999E-001
  2.25000E-004	  4.96804E-001	  4.68094E-001	  4.64642E-001	  6.05650E-001
  2.50000E-004	  4.55015E-001	  4.68094E-001	  4.96920E-001	  5.40348E-001
  2.75000E-004	  5.00603E-001	  4.60427E-001	  4.44468E-001	  4.94253E-001
  3.00000E-004	  4.70211E-001	  4.83426E-001	  3.07283E-001	  3.21396E-001
  3.25000E-004	  4.13226E-001	  3.60766E-001	  4.44468E-001	  4.51999E-001
  3.50000E-004	  5.61387E-001	  4.29762E-001	  4.64642E-001	  5.51872E-001
  3.75000E-004	  4.51216E-001	  4.64260E-001	  4.20259E-001	  5.24983E-001
  4.00000E-004	  4.09427E-001	  4.66176E-001	  5.07007E-001	  5.23062E-001
  4.50000E-004	  4.13226E-001	  4.14429E-001	  4.06136E-001	  4.98093E-001
  5.00000E-004	  5.82281E-001	  5.29423E-001	  4.72711E-001	  5.01935E-001
  5.50000E-004	  4.53115E-001	  4.71926E-001	  4.16223E-001	  5.32665E-001
  6.00000E-004	  4.18924E-001	  4.94925E-001	  4.00084E-001	  5.07697E-001
  6.50000E-004	  4.96803E-001	  4.75759E-001	  5.61477E-001	  5.07681E-001
  7.00000E-004	  4.93004E-001	  4.93008E-001	  4.52537E-001	  4.09730E-001
  7.50000E-004	  5.76582E-001	  4.52760E-001	  5.04989E-001	  4.48142E-001
  8.00000E-004	  4.96802E-001	  5.24631E-001	  4.93892E-001	  4.89449E-001
  9.00000E-004	  4.93003E-001	  4.12511E-001	  4.18239E-001	  4.65441E-001
  1.00000E-003	  4.23672E-001	  4.67133E-001	  4.69683E-001	  4.23188E-001
  1.10000E-003	  4.86355E-001	  5.03548E-001	  4.70692E-001	  4.93291E-001
  1.20000E-003	  5.05350E-001	  4.43176E-001	  3.96048E-001	  4.76005E-001
  1.30000E-003	  4.80657E-001	  5.09298E-001	  5.46345E-001	  5.33624E-001
  1.40000E-003	  5.38591E-001	  4.18261E-001	  4.23283E-001	  4.43354E-001
  1.50000E-003	  4.25571E-001	  4.81508E-001	  4.16222E-001	  4.86553E-001
  1.60000E-003	  5.10571E-001	  4.68089E-001	  4.32359E-001	  4.99530E-001
  1.80000E-003	  5.22443E-001	  4.58986E-001	  4.83298E-001	  4.76963E-001
  2.00000E-003	  4.26518E-001	  4.56590E-001	  4.44968E-001	  4.47673E-001
  2.20000E-003	  4.96325E-001	  4.70485E-001	  4.54550E-001	  4.98570E-001
  2.40000E-003	  4.84453E-001	  4.56111E-001	  4.17228E-001	  4.43352E-001
  2.60000E-003	  4.94900E-001	  4.22092E-001	  4.68672E-001	  5.04812E-001
  2.80000E-003	  4.18446E-001	  4.35987E-001	  4.57576E-001	  5.00010E-001
  3.00000E-003	  4.27943E-001	  4.57548E-001	  4.14706E-001	  5.12014E-001
  3.20000E-003	  4.58093E-001	  4.28316E-001	  4.54798E-001	  4.91858E-001
  3.60000E-003	  4.33637E-001	  4.63532E-001	  4.49754E-001	  4.68810E-001
  4.00000E-003	  4.80174E-001	  4.59939E-001	  4.37397E-001	  4.70731E-001
  4.40000E-003	  4.52157E-001	  4.61376E-001	  4.37145E-001	  4.67610E-001
  4.80000E-003	  4.51682E-001	  4.09629E-001	  4.40676E-001	  4.50804E-001
  5.20000E-003	  4.90384E-001	  4.72157E-001	  4.38406E-001	  4.73612E-001
  5.60000E-003	  4.33162E-001	  4.47960E-001	  4.54293E-001	  4.66889E-001
  6.00000E-003	  4.51919E-001	  4.77667E-001	  4.75224E-001	  4.92818E-001
  6.40000E-003	  4.33508E-001	  4.41722E-001	  4.31966E-001	  5.00986E-001
  7.20000E-003	  4.78858E-001	  4.61621E-001	  4.11666E-001	  4.89837E-001
  8.00000E-003	  4.64864E-001	  4.47007E-001	  4.39405E-001	  4.74832E-001
  8.80000E-003	  4.55604E-001	  4.33112E-001	  4.27301E-001	  4.63668E-001
  9.60000E-003	  4.57504E-001	  4.43533E-001	  4.28814E-001	  4.74097E-001
  1.04000E-002	  4.38390E-001	  4.55033E-001	  4.33353E-001	  4.60412E-001
  1.12000E-002	  4.36728E-001	  4.44266E-001	  4.47979E-001	  4.77338E-001
  1.20000E-002	  4.51212E-001	  4.25834E-001	  4.40162E-001	  4.53810E-001
  1.28000E-002	  4.56000E-001	  4.41327E-001	  4.33411E-001	  4.68553E-001
  1.44000E-002	  4.42585E-001	  4.41461E-001	  4.49361E-001	  4.82899E-001
  1.60000E-002	  4.48818E-001	  4.34108E-001	  4.41559E-001	  4.50786E-001
  1.76000E-002	  4.62886E-001	  4.53095E-001	  4.23654E-001	  4.66332E-001
  1.92000E-002	  4.63479E-001	  4.42254E-001	  4.05750E-001	  4.61110E-001
  2.08000E-002	  4.33444E-001	  4.36384E-001	  4.21133E-001	  4.67293E-001
  2.24000E-002	  4.44366E-001	  4.29257E-001	  4.13883E-001	  4.63376E-001
  2.40000E-002	  4.58137E-001	  4.27534E-001	  3.94528E-001	  4.43449E-001
  2.56000E-002	  4.47546E-001	  4.17583E-001	  4.07028E-001	  4.51597E-001
  2.88000E-002	  4.37930E-001	  4.12223E-001	  4.17494E-001	  4.60663E-001
  3.20000E-002	  4.34043E-001	  4.40611E-001	  4.07516E-001	  4.54405E-001
  3.52000E-002	  4.36150E-001	  4.19437E-001	  3.95047E-001	  4.48028E-001
  3.84000E-002	  4.34488E-001	  4.28212E-001	  3.93614E-001	  4.48524E-001
  4.16000E-002	  4.24130E-001	  4.25621E-001	  4.12780E-001	  4.37913E-001
  4.48000E-002	  4.08845E-001	  4.16068E-001	  3.94434E-001	  4.29494E-001
  4.80000E-002	  4.17690E-001	  4.18433E-001	  3.84567E-001	  4.32601E-001
  5.12000E-002	  4.11868E-001	  4.20137E-001	  3.86899E-001	  4.26504E-001
  5.76000E-002	  4.08426E-001	  4.09880E-001	  3.92450E-001	  4.31443E-001
  6.40000E-002	  4.03468E-001	  4.05866E-001	  3.87754E-001	  4.28710E-001
  7.04000E-002	  3.95098E-001	  3.96147E-001	  3.87658E-001	  4.13311E-001
  7.68000E-002	  3.94788E-001	  3.93554E-001	  3.69577E-001	  4.03707E-001
  8.32000E-002	  3.94297E-001	  3.87683E-001	  3.69623E-001	  4.07958E-001
  8.96000E-002	  3.77528E-001	  3.83910E-001	  3.61424E-001	  3.96940E-001
  9.60000E-002	  3.74604E-001	  3.84013E-001	  3.57040E-001	  3.89766E-001
  1.02400E-001	  3.69466E-001	  3.79942E-001	  3.48190E-001	  3.89221E-001
  1.15200E-001	  3.55641E-001	  3.67714E-001	  3.43634E-001	  3.87559E-001
  1.28000E-001	  3.51797E-001	  3.49858E-001	  3.36732E-001	  3.78081E-001
  1.40800E-001	  3.42962E-001	  3.49085E-001	  3.27433E-001	  3.67194E-001
  1.53600E-001	  3.34494E-001	  3.37296E-001	  3.15677E-001	  3.57634E-001
  1.66400E-001	  3.23743E-001	  3.25677E-001	  3.06538E-001	  3.48551E-001
  1.79200E-001	  3.16600E-001	  3.09783E-001	  2.97273E-001	  3.38792E-001
  1.92000E-001	  3.02046E-001	  3.13008E-001	  2.83781E-001	  3.33234E-001
  2.04800E-001	  2.97586E-001	  2.96550E-001	  2.77855E-001	  3.22243E-001
  2.30400E-001	  2.82115E-001	  2.82584E-001	  2.60647E-001	  3.01599E-001
  2.56000E-001	  2.67525E-001	  2.65292E-001	  2.42783E-001	  2.90247E-001
  2.81600E-001	  2.47878E-001	  2.46586E-001	  2.22994E-001	  2.69942E-001
  3.07200E-001	  2.29984E-001	  2.30273E-001	  2.08683E-001	  2.54936E-001
  3.32800E-001	  2.14119E-001	  2.19974E-001	  1.94048E-001	  2.40120E-001
  3.58400E-001	  2.01715E-001	  2.08230E-001	  1.80496E-001	  2.26312E-001
  3.84000E-001	  1.86368E-001	  1.91435E-001	  1.69301E-001	  2.17993E-001
  4.09600E-001	  1.76485E-001	  1.81170E-001	  1.57701E-001	  2.02322E-001
  4.60800E-001	  1.50548E-001	  1.62108E-001	  1.37158E-001	  1.78719E-001
  5.12000E-001	  1.30009E-001	  1.40227E-001	  1.19583E-001	  1.59631E-001
  5.63200E-001	  1.14932E-001	  1.27391E-001	  1.04033E-001	  1.41858E-001
  6.14400E-001	  9.55644E-002	  1.16113E-001	  9.77191E-002	  1.24587E-001
  6.65600E-001	  8.44121E-002	  1.03237E-001	  8.72507E-002	  1.11322E-001
  7.16800E-001	  7.29881E-002	  9.25237E-002	  7.88258E-002	  1.02412E-001
  7.68000E-001	  6.46347E-002	  8.27831E-002	  7.16241E-002	  8.98761E-002
  8.19200E-001	  5.93105E-002	  7.63464E-002	  6.53236E-002	  8.27362E-002
  9.21600E-001	  5.07844E-002	  6.16992E-002	  5.58170E-002	  6.68633E-002
  1.02400E+000	  4.25049E-002	  5.19043E-002	  5.11945E-002	  5.40541E-002
  1.12640E+000	  4.07953E-002	  3.96000E-002	  4.76367E-002	  4.48723E-002
  1.22880E+000	  3.47589E-002	  3.12185E-002	  4.09537E-002	  4.03565E-002
  1.33120E+000	  3.36128E-002	  2.64715E-002	  3.30824E-002	  2.93855E-002
  1.43360E+000	  3.14236E-002	  2.36246E-002	  2.64563E-002	  2.61570E-002
  1.53600E+000	  2.98513E-002	  1.93287E-002	  2.27133E-002	  2.35311E-002
  1.63840E+000	  2.90581E-002	  1.92846E-002	  2.07202E-002	  2.01362E-002
  1.84320E+000	  2.41719E-002	  1.29782E-002	  1.75819E-002	  8.58941E-003
  2.04800E+000	  1.34626E-002	  6.37734E-003	  1.17433E-002	  5.60246E-003
  2.25280E+000	  8.61785E-003	  2.59604E-003	  1.03740E-002	  5.42141E-003
  2.45760E+000	  9.62217E-003	  5.03109E-003	  1.05923E-002	  5.66515E-003
  2.66240E+000	  5.32052E-003	  4.09006E-003	  4.49212E-003	  2.46108E-003
  2.86720E+000	  1.01187E-002	 -5.84355E-004	  4.61205E-004	 -6.96908E-004
  3.07200E+000	  9.56376E-003	 -1.10883E-002	  2.01245E-003	  6.21963E-004
  3.27680E+000	  1.08271E-002	 -1.40988E-002	  7.72280E-003	 -1.40174E-003
  3.68640E+000	  3.56110E-003	 -1.12168E-002	  1.21373E-002	 -1.34508E-002
  4.09600E+000	 -2.68193E-003	 -1.28863E-002	  1.47562E-002	 -1.88014E-002
  4.50560E+000	  4.07394E-003	 -5.24487E-003	  1.04194E-002	 -1.54994E-002
  4.91520E+000	  5.33520E-003	  5.29619E-003	  8.64037E-004	 -1.47056E-002
  5.32480E+000	 -1.01560E-002	 -2.08503E-003	 -1.35884E-002	 -1.44460E-002
  5.73440E+000	 -2.05921E-002	 -1.00701E-002	 -9.39739E-003	 -1.12104E-002
  6.14400E+000	 -7.79055E-003	 -8.80122E-003	 -1.49132E-003	  4.96394E-004
  6.55360E+000	  1.40948E-003	 -2.77580E-003	 -2.29364E-003	 -1.30745E-003
  7.37280E+000	  1.19337E-002	 -3.49090E-004	  1.80297E-003	 -6.13334E-003
  8.19200E+000	  2.36272E-003	  7.11908E-004	  1.30253E-002	  6.73390E-004
  9.01120E+000	 -1.75070E-003	  7.54946E-003	  7.52788E-003	 -4.52538E-003
  9.83040E+000	 -2.09677E-003	  2.56428E-003	  1.32324E-002	  8.45338E-003
  1.06496E+001	  3.02744E-003	  1.07723E-002	  6.66389E-003	  6.44943E-003
  1.14688E+001	  4.62846E-003	 -5.93946E-003	  1.22498E-003	 -2.90193E-003
  1.22880E+001	  1.39038E-002	  1.73732E-003	 -1.24187E-002	 -3.65219E-003
  1.31072E+001	 -1.07894E-002	  1.02909E-002	 -1.23369E-002	 -9.70131E-003
  1.47456E+001	 -3.93340E-003	  1.35129E-002	 -8.91119E-003	  3.38930E-003
  1.63840E+001	  9.40351E-004	 -4.08510E-003	 -1.01921E-002	  1.04409E-002
  1.80224E+001	 -7.68238E-003	 -8.87052E-003	 -8.89321E-003	  8.32304E-003
  1.96608E+001	 -6.16470E-003	  1.26623E-003	  9.12438E-004	  4.75521E-003
  2.12992E+001	 -1.04630E-002	  1.19624E-003	  3.18140E-003	 -4.03523E-003
  2.29376E+001	  2.40863E-003	  3.06653E-003	  1.68222E-003	  2.03984E-003
  2.45760E+001	 -6.04238E-003	  2.07620E-002	 -1.11080E-002	  4.06698E-003
  2.62144E+001	 -9.24460E-003	  1.11390E-002	 -9.34801E-003	  4.06509E-003
  2.94912E+001	 -5.31728E-003	  9.94589E-003	 -7.27907E-004	  7.38704E-003
  3.27680E+001	 -1.63095E-003	 -5.66470E-005	  5.60864E-003	  4.20042E-003
  3.60448E+001	  1.34664E-002	  1.40567E-002	 -1.05807E-003	  3.91725E-003
  3.93216E+001	 -4.70056E-003	 -3.54686E-003	 -1.00685E-002	 -1.05531E-003
  4.25984E+001	 -1.04309E-002	  3.84432E-003	  8.03480E-003	 -1.83879E-003
  4.58752E+001	  8.32662E-003	 -3.73578E-003	  7.32074E-003	  6.28173E-003
  4.91520E+001	  3.97788E-003	  4.94866E-003	 -1.69457E-002	  4.04327E-003
  5.24288E+001	 -1.87887E-003	 -1.67588E-003	  4.29347E-003	  9.74737E-004
  5.89824E+001	  1.97261E-003	 -3.84590E-003	  2.12775E-003	  1.24488E-002
  6.55360E+001	 -7.87258E-003	  8.11371E-003	 -4.83397E-003	  4.82548E-003
  7.20896E+001	  2.11302E-003	 -1.37691E-003	 -3.04110E-003	  3.32929E-003
  7.86432E+001	  1.05704E-002	  4.75872E-003	  2.92172E-003	  4.14666E-003
  8.51968E+001	 -6.14923E-004	 -5.26913E-003	  8.11234E-004	  6.17160E-003
  9.17504E+001	 -9.00640E-003	  1.12577E-003	 -7.96703E-003	 -1.38489E-003
  9.83040E+001	 -3.82084E-003	 -1.10152E-003	 -1.62070E-003	  1.63596E-003
  1.04858E+002	 -9.68604E-005	 -3.25457E-003	  3.26696E-003	 -8.01561E-004
  1.17965E+002	  1.71382E-003	 -3.84991E-003	 -1.22960E-003	 -7.54943E-004
  1.31072E+002	  1.76798E-003	 -4.62092E-003	 -7.05384E-003	  3.34046E-003
  1.44179E+002	  2.48914E-003	 -1.38005E-004	 -7.73206E-003	  5.93136E-004
  1.57286E+002	  4.23255E-004	 -3.22411E-003	  2.79631E-003	 -2.10691E-003
  1.70394E+002	 -8.48657E-004	 -1.45622E-003	  1.06933E-003	 -2.66555E-003
  1.83501E+002	 -2.06324E-003	 -3.29125E-003	  3.17898E-003	 -4.22685E-003
  1.96608E+002	 -1.88692E-003	  1.91553E-003	 -1.58137E-003	 -3.80187E-003
  2.09715E+002	  1.63514E-003	  1.11251E-003	  3.70908E-003	 -1.98825E-003
  2.35930E+002	  5.84007E-003	 -2.29866E-003	  5.65298E-003	 -1.53529E-004
  2.62144E+002	  3.72690E-004	  3.27043E-004	 -3.51300E-003	 -7.42457E-003
  2.88358E+002	 -2.27849E-003	  5.81503E-003	 -2.06906E-003	 -1.68182E-003
  3.14573E+002	 -5.88180E-003	 -2.87271E-003	 -1.63684E-003	 -5.60579E-003
  3.40787E+002	  5.14187E-003	  6.49674E-004	 -6.55727E-003	 -7.17547E-003
  3.67002E+002	 -2.44652E-003	 -3.46628E-004	 -3.79090E-003	 -8.33549E-004
  3.93216E+002	  3.15353E-003	 -6.39251E-003	  4.29349E-003	 -3.78313E-003

"Count Rate"
       0.01311	     105.89600	      74.46289	      99.18213	      91.09497
       0.02621	     110.39734	      88.34839	     125.73242	      92.39197
       0.03932	      80.18494	     103.07312	      95.06226	     129.69971
       0.05243	     117.56897	      94.37561	     107.72705	      81.17676
       0.06554	      91.85791	     102.38647	      83.84705	     131.83594
       0.07864	     102.53906	      99.18213	      84.60999	     107.19299
       0.09175	      87.12769	      88.65356	      97.88513	      94.52820
       0.10486	      98.41919	      82.39746	      95.44373	      79.65088
       0.11796	      90.71350	     108.56628	     146.17920	      76.82800
       0.13107	     114.97498	      91.93420	     111.08398	     102.84424
       0.14418	     115.73792	     104.21753	      76.29395	      96.51184
       0.15729	     128.86047	      71.10596	     109.71069	      80.56641
       0.17039	     105.05676	      64.62097	     128.86047	      87.50916
       0.18350	     117.56897	     105.05676	      70.95337	      68.96973
       0.19661	     104.98047	      96.28296	     115.58533	      97.73254
       0.20972	     107.57446	     125.35095	     111.16028	      99.25842
       0.22282	     105.97229	     100.47913	      78.43018	      85.14404
       0.23593	     124.20654	     118.02673	     119.78149	      79.72717
       0.24904	      87.28027	     140.68604	     103.14941	     101.31836
       0.26214	      55.46570	     129.54712	      77.89612	     110.24475
       0.27525	      98.72437	     126.26648	      94.22302	     150.60425
       0.28836	     107.34558	     118.48450	     105.66711	      84.15222
       0.30147	     114.28833	     115.96680	      99.63989	     105.13306
       0.31457	      95.59631	      90.40833	      70.80078	      84.15222
       0.32768	      97.73254	     134.96399	     111.23657	     106.73523
       0.34079	      71.94519	     108.48999	     105.05676	     115.12756
       0.35389	     117.64526	     104.67529	     122.98584	     125.35095
       0.36700	      69.58008	      81.71082	      92.31567	     108.94775
       0.38011	      87.89063	     111.61804	      74.31030	     111.31287
       0.39322	     107.04041	     107.49817	     134.50623	     100.70801
       0.40632	     113.83057	     111.46545	     115.96680	     111.77063
       0.41943	      86.21216	     130.53894	     102.69165	     131.98853
       0.43254	     139.16016	      96.05408	     128.47900	     120.31555
       0.44564	      79.87976	     110.70251	      89.56909	     113.90686
       0.45875	      92.31567	      83.46558	      94.37561	     103.45459
       0.47186	      95.67261	     100.40283	      86.74622	     123.29102
       0.48497	     119.24744	     107.26929	      78.04871	     113.22021
       0.49807	      96.05408	     112.91504	      93.91785	     144.42444
       0.51118	      77.51465	      83.00781	     112.38098	     124.20654
       0.52429	      95.67261	     115.28015	      82.01599	      83.46558
       0.53740	     120.84961	     103.37830	      75.98877	     101.54724
       0.55050	     132.37000	     127.02942	      79.04053	     113.44910
       0.56361	     113.22021	      88.57727	     115.81421	     103.60718
       0.57672	     110.09216	     102.61536	      85.60181	     100.40283
       0.58982	      82.16858	     126.11389	      73.69995	     100.47913
       0.60293	     100.47913	     101.92871	     126.34277	     121.84143
       0.61604	     115.81421	      97.80884	     125.19836	      94.90967
       0.62915	     112.15210	     102.61536	      90.40833	      95.82520
       0.64225	     116.88232	      79.11682	     108.33740	      80.18494
       0.65536	     103.91235	      76.98059	      94.98596	     129.77600
       0.66847	     114.51721	      80.87158	      92.16309	      83.92334
       0.68157	     108.10852	     112.76245	      99.02954	     108.94775
       0.69468	      93.84155	     106.27747	      80.64270	      99.48730
       0.70779	      98.57178	     114.74609	      87.35657	     108.71887
       0.72090	      86.59363	      88.19580	     120.08667	     126.57166
       0.73400	     116.11938	     104.29382	      74.53918	     117.18750
       0.74711	      92.69714	      88.65356	     107.34558	      95.06226
       0.76022	      89.41650	     111.23657	      72.47925	      81.48193
       0.77332	     109.71069	      87.35657	     107.65076	     118.56079
       0.78643	     184.55505	     143.66150	      86.89880	     128.17383
       0.79954	      99.71619	     100.63171	     124.35913	      79.80347
       0.81265	     101.69983	      95.74890	     110.93140	     104.14124
       0.82575	     121.45996	     118.02673	     138.85498	     104.75159
       0.83886	     117.95044	      84.30481	      81.32935	      79.04053
       0.85197	      91.01868	     119.01855	      91.01868	      82.01599
       0.86508	     121.15479	     121.76514	     110.24475	      84.99146
       0.87818	      88.72986	     104.82788	     115.28015	      98.49548
       0.89129	      75.91248	     130.84412	      83.16040	     105.59082
       0.90440	     133.36182	     119.70520	     116.42456	     119.01855
       0.91750	     104.21753	     133.51440	     109.48181	     118.86597
       0.93061	      99.18213	      82.77893	     123.06213	     132.37000

Monitor Diode	      1.00
