ALV-7004/USB-FAST
Date :	"3/14/2024"
Time :	"12:33:57 PM"
Samplename : 	""
SampMemo(0) : 	""
SampMemo(1) : 	""
SampMemo(2) : 	""
SampMemo(3) : 	""
SampMemo(4) : 	""
SampMemo(5) : 	""
SampMemo(6) : 	""
SampMemo(7) : 	""
SampMemo(8) : 	""
SampMemo(9) : 	""
Temperature [K] :	     298.16000
Viscosity [cp]  :	       0.89000
Refractive Index:	       1.33200
Wavelength [nm] :	       0.00000
Angle [°]       :	       0.00000
Duration [s]    :	         1
FloatDur [ms]   :	          944
Stop TP [ms]   :	      3382
Runs            :	         1
Mode            :	"A-CH0+1  A-CH2+3 "
MeanCR0 [kHz]   :	     122.85445
MeanCR1 [kHz]   :	     117.66434
MeanCR2 [kHz]   :	     109.02511
MeanCR3 [kHz]   :	     112.63105

"Correlation"
  3.12500E-006	 -1.00000E+000	 -1.00000E+000	 -1.00000E+000	 -1.00000E+000
  6.25000E-006	 -1.00000E+000	 -1.00000E+000	 -1.00000E+000	 -1.00000E+000
  9.37500E-006	 -1.00000E+000	 -1.00000E+000	 -1.00000E+000	 -1.00000E+000
  1.25000E-005	 -1.00000E+000	 -1.00000E+000	 -1.00000E+000	 -1.00000E+000
  1.56250E-005	 -1.00000E+000	 -1.00000E+000	 -1.00000E+000	 -1.00000E+000
  1.87500E-005	 -1.00000E+000	 -1.00000E+000	 -1.00000E+000	 -1.00000E+000
  2.18750E-005	 -9.32602E-001	 -2.16268E-001	 -1.72720E-001	 -9.19811E-001
  2.50000E-005	  6.59351E+000	  6.22503E+000	  5.64677E+000	  1.16163E+001
  2.81250E-005	  1.83072E+000	  1.54713E+000	  1.71005E+000	  4.82704E+000
  3.12500E-005	  1.08934E+000	  7.14415E-001	  9.68356E-001	  2.74213E+000
  3.43750E-005	  1.11180E+000	  6.89923E-001	  9.68356E-001	  2.10062E+000
  3.75000E-005	  8.42212E-001	  7.63398E-001	  1.25362E+000	  2.84905E+000
  4.06250E-005	  6.17552E-001	  4.20515E-001	  6.54560E-001	  1.83333E+000
  4.37500E-005	  8.87144E-001	  6.40940E-001	  4.26345E-001	  1.61949E+000
  4.68750E-005	  4.15358E-001	  3.96023E-001	  7.40140E-001	  1.29874E+000
  5.00000E-005	  6.62484E-001	  5.67465E-001	  7.54404E-001	  1.41902E+000
  5.62500E-005	  6.28785E-001	  5.06236E-001	  4.26345E-001	  1.47248E+000
  6.25000E-005	  5.16455E-001	  7.38906E-001	  3.12237E-001	  8.97796E-001
  6.87500E-005	  2.35630E-001	  7.26660E-001	  5.83243E-001	  8.97796E-001
  7.50000E-005	  6.51251E-001	  4.93990E-001	  7.11614E-001	  9.11161E-001
  8.12500E-005	  5.16455E-001	  4.69498E-001	  3.55027E-001	  5.10218E-001
  8.75000E-005	  5.61387E-001	  7.87889E-001	  6.26033E-001	  6.03771E-001
  9.37500E-005	  6.06319E-001	  4.32761E-001	  5.40452E-001	  5.36948E-001
  1.00000E-004	  5.67003E-001	  5.12358E-001	  4.83398E-001	  7.37419E-001
  1.12500E-004	  5.61387E-001	  4.57252E-001	  3.69291E-001	  5.16900E-001
  1.25000E-004	  3.36727E-001	  6.04202E-001	  4.33476E-001	  5.83724E-001
  1.37500E-004	  5.72620E-001	  4.69498E-001	  6.11769E-001	  4.03300E-001
  1.50000E-004	  3.92892E-001	  4.69498E-001	  5.47584E-001	  6.17136E-001
  1.62500E-004	  4.99605E-001	  3.65409E-001	  4.76267E-001	  5.16900E-001
  1.75000E-004	  4.65906E-001	  5.36850E-001	  7.68667E-001	  4.50076E-001
  1.87500E-004	  5.55770E-001	  5.00113E-001	  4.47740E-001	  4.70124E-001
  2.00000E-004	  4.85564E-001	  4.14392E-001	  5.04793E-001	  5.73700E-001
  2.25000E-004	  5.24879E-001	  4.20514E-001	  5.68979E-001	  4.36711E-001
  2.50000E-004	  4.93989E-001	  5.88894E-001	  3.97817E-001	  5.83724E-001
  2.75000E-004	  4.01316E-001	  5.46034E-001	  4.12081E-001	  4.30029E-001
  3.00000E-004	  3.87275E-001	  5.33788E-001	  5.08359E-001	  4.63441E-001
  3.25000E-004	  3.33918E-001	  5.70526E-001	  5.65413E-001	  4.23347E-001
  3.50000E-004	  5.24879E-001	  5.95017E-001	  4.94096E-001	  4.53417E-001
  3.75000E-004	  5.55770E-001	  6.68492E-001	  3.97817E-001	  5.23582E-001
  4.00000E-004	  4.96796E-001	  4.97050E-001	  4.56653E-001	  5.56994E-001
  4.50000E-004	  5.29091E-001	  5.53687E-001	  4.94095E-001	  5.05205E-001
  5.00000E-004	  4.02720E-001	  5.23073E-001	  4.69134E-001	  5.73699E-001
  5.50000E-004	  5.22070E-001	  4.89397E-001	  4.44173E-001	  5.73699E-001
  6.00000E-004	  4.99604E-001	  4.43475E-001	  4.63799E-001	  4.65111E-001
  6.50000E-004	  5.24879E-001	  4.72559E-001	  4.54885E-001	  5.58664E-001
  7.00000E-004	  4.61693E-001	  5.03173E-001	  4.54885E-001	  5.67017E-001
  7.50000E-004	  5.86660E-001	  4.92458E-001	  5.04807E-001	  4.95182E-001
  8.00000E-004	  5.19963E-001	  5.12356E-001	  5.13721E-001	  4.98521E-001
  9.00000E-004	  4.91178E-001	  4.62608E-001	  4.99457E-001	  5.09380E-001
  1.00000E-003	  4.69415E-001	  5.19244E-001	  5.00348E-001	  4.88498E-001
  1.10000E-003	  4.75733E-001	  4.34289E-001	  4.91434E-001	  4.75133E-001
  1.20000E-003	  4.48353E-001	  4.55719E-001	  4.70930E-001	  4.90169E-001
  1.30000E-003	  4.49055E-001	  4.78680E-001	  5.03023E-001	  4.58427E-001
  1.40000E-003	  5.08730E-001	  4.73323E-001	  4.78953E-001	  4.45062E-001
  1.50000E-003	  4.92583E-001	  4.74088E-001	  4.88759E-001	  5.30263E-001
  1.60000E-003	  4.80645E-001	  5.22686E-001	  4.94997E-001	  4.60095E-001
  1.80000E-003	  4.43085E-001	  4.66432E-001	  4.59338E-001	  4.91001E-001
  2.00000E-003	  4.82400E-001	  4.49977E-001	  4.56664E-001	  5.04784E-001
  2.20000E-003	  4.45542E-001	  4.92072E-001	  5.00346E-001	  4.79725E-001
  2.40000E-003	  5.10834E-001	  4.61457E-001	  4.59784E-001	  4.82231E-001
  2.60000E-003	  4.02014E-001	  4.96281E-001	  4.99900E-001	  4.33366E-001
  2.80000E-003	  4.42032E-001	  4.96664E-001	  4.50869E-001	  4.80560E-001
  3.00000E-003	  4.48350E-001	  4.63370E-001	  4.42400E-001	  4.91837E-001
  3.20000E-003	  4.52733E-001	  4.86340E-001	  4.51533E-001	  4.71576E-001
  3.60000E-003	  4.62035E-001	  5.00499E-001	  5.01678E-001	  4.76587E-001
  4.00000E-003	  4.74672E-001	  4.86531E-001	  4.63568E-001	  4.86820E-001
  4.40000E-003	  4.66248E-001	  4.71032E-001	  5.00787E-001	  4.68861E-001
  4.80000E-003	  4.93277E-001	  4.76007E-001	  4.79837E-001	  4.76184E-001
  5.20000E-003	  4.75901E-001	  4.54194E-001	  4.83403E-001	  4.70545E-001
  5.60000E-003	  4.98016E-001	  4.74298E-001	  4.86746E-001	  4.72216E-001
  6.00000E-003	  5.01351E-001	  4.79082E-001	  4.94769E-001	  4.68666E-001
  6.40000E-003	  4.88353E-001	  4.94311E-001	  4.90820E-001	  4.59273E-001
  7.20000E-003	  4.63079E-001	  4.73263E-001	  4.86251E-001	  5.00202E-001
  8.00000E-003	  4.73785E-001	  4.68288E-001	  4.87477E-001	  4.89239E-001
  8.80000E-003	  4.58352E-001	  4.71062E-001	  4.87031E-001	  4.69296E-001
  9.60000E-003	  4.62389E-001	  4.48662E-001	  4.89260E-001	  4.75979E-001
  1.04000E-002	  4.60546E-001	  4.52393E-001	  4.46133E-001	  4.83496E-001
  1.12000E-002	  4.54315E-001	  4.61577E-001	  4.56385E-001	  4.47056E-001
  1.20000E-002	  4.60458E-001	  4.65978E-001	  4.62737E-001	  4.50711E-001
  1.28000E-002	  4.69872E-001	  4.61071E-001	  4.61786E-001	  4.64435E-001
  1.44000E-002	  4.64563E-001	  4.68677E-001	  4.46058E-001	  4.70856E-001
  1.60000E-002	  4.58859E-001	  4.62219E-001	  4.65435E-001	  4.53315E-001
  1.76000E-002	  4.59298E-001	  4.51121E-001	  4.47521E-001	  4.66262E-001
  1.92000E-002	  4.46968E-001	  4.47855E-001	  4.60600E-001	  4.56695E-001
  2.08000E-002	  4.55637E-001	  4.48777E-001	  4.61506E-001	  4.69120E-001
  2.24000E-002	  4.47313E-001	  4.49194E-001	  4.41280E-001	  4.60245E-001
  2.40000E-002	  4.63987E-001	  4.65650E-001	  4.52870E-001	  4.62959E-001
  2.56000E-002	  4.46750E-001	  4.44700E-001	  4.55647E-001	  4.52350E-001
  2.88000E-002	  4.47113E-001	  4.61429E-001	  4.44112E-001	  4.54099E-001
  3.20000E-002	  4.38491E-001	  4.41027E-001	  4.35586E-001	  4.49061E-001
  3.52000E-002	  4.30157E-001	  4.35861E-001	  4.38512E-001	  4.44884E-001
  3.84000E-002	  4.39218E-001	  4.33612E-001	  4.34555E-001	  4.47626E-001
  4.16000E-002	  4.36410E-001	  4.35550E-001	  4.39180E-001	  4.47000E-001
  4.48000E-002	  4.33275E-001	  4.25970E-001	  4.24288E-001	  4.35005E-001
  4.80000E-002	  4.39002E-001	  4.30693E-001	  4.26001E-001	  4.32356E-001
  5.12000E-002	  4.28520E-001	  4.17025E-001	  4.21839E-001	  4.35713E-001
  5.76000E-002	  4.25831E-001	  4.18305E-001	  4.31886E-001	  4.30937E-001
  6.40000E-002	  4.19292E-001	  4.24118E-001	  4.19289E-001	  4.21487E-001
  7.04000E-002	  4.07433E-001	  4.18855E-001	  4.16014E-001	  4.18133E-001
  7.68000E-002	  4.09641E-001	  4.05974E-001	  4.04394E-001	  4.01075E-001
  8.32000E-002	  4.02751E-001	  3.94039E-001	  4.04101E-001	  4.06556E-001
  8.96000E-002	  3.94306E-001	  3.97005E-001	  3.96381E-001	  3.99104E-001
  9.60000E-002	  3.92978E-001	  3.91922E-001	  4.00353E-001	  3.93009E-001
  1.02400E-001	  3.88943E-001	  3.92545E-001	  3.90807E-001	  3.88316E-001
  1.15200E-001	  3.79890E-001	  3.75234E-001	  3.82514E-001	  3.74689E-001
  1.28000E-001	  3.72092E-001	  3.69779E-001	  3.72178E-001	  3.71935E-001
  1.40800E-001	  3.64928E-001	  3.60278E-001	  3.66477E-001	  3.60162E-001
  1.53600E-001	  3.61744E-001	  3.54579E-001	  3.47298E-001	  3.55979E-001
  1.66400E-001	  3.47779E-001	  3.40067E-001	  3.36401E-001	  3.41248E-001
  1.79200E-001	  3.39641E-001	  3.33842E-001	  3.36392E-001	  3.40954E-001
  1.92000E-001	  3.32116E-001	  3.27337E-001	  3.21805E-001	  3.23618E-001
  2.04800E-001	  3.27114E-001	  3.15975E-001	  3.12596E-001	  3.11913E-001
  2.30400E-001	  3.10334E-001	  2.93125E-001	  2.97919E-001	  3.01192E-001
  2.56000E-001	  2.88039E-001	  2.77367E-001	  2.75702E-001	  2.83837E-001
  2.81600E-001	  2.74177E-001	  2.61370E-001	  2.65430E-001	  2.69029E-001
  3.07200E-001	  2.57818E-001	  2.47716E-001	  2.47981E-001	  2.52783E-001
  3.32800E-001	  2.39746E-001	  2.32227E-001	  2.33672E-001	  2.37423E-001
  3.58400E-001	  2.28174E-001	  2.15531E-001	  2.19783E-001	  2.24393E-001
  3.84000E-001	  2.17687E-001	  2.05273E-001	  2.03095E-001	  2.09890E-001
  4.09600E-001	  2.10634E-001	  1.90789E-001	  1.90795E-001	  1.96449E-001
  4.60800E-001	  1.88132E-001	  1.65010E-001	  1.67695E-001	  1.75475E-001
  5.12000E-001	  1.72875E-001	  1.43575E-001	  1.53412E-001	  1.47438E-001
  5.63200E-001	  1.52600E-001	  1.25213E-001	  1.29181E-001	  1.24644E-001
  6.14400E-001	  1.40569E-001	  1.06557E-001	  1.09835E-001	  1.08793E-001
  6.65600E-001	  1.29579E-001	  9.08123E-002	  9.80841E-002	  9.52548E-002
  7.16800E-001	  1.23390E-001	  7.96086E-002	  8.36964E-002	  8.23818E-002
  7.68000E-001	  1.10131E-001	  6.99179E-002	  7.40357E-002	  7.66940E-002
  8.19200E-001	  9.87722E-002	  6.18561E-002	  6.37488E-002	  6.53677E-002
  9.21600E-001	  8.14392E-002	  4.86213E-002	  4.53846E-002	  5.25014E-002
  1.02400E+000	  6.79058E-002	  3.25537E-002	  3.43366E-002	  4.39967E-002
  1.12640E+000	  5.45246E-002	  2.41871E-002	  2.45814E-002	  3.76945E-002
  1.22880E+000	  4.35439E-002	  1.42606E-002	  1.83344E-002	  3.27707E-002
  1.33120E+000	  3.08314E-002	  1.18082E-002	  9.27029E-003	  3.26800E-002
  1.43360E+000	  2.33688E-002	  1.01359E-002	  5.77477E-003	  2.73750E-002
  1.53600E+000	  1.88864E-002	  8.64385E-003	  1.54424E-003	  2.47259E-002
  1.63840E+000	  1.44617E-002	  1.11463E-002	 -2.75284E-003	  2.38236E-002
  1.84320E+000	  4.87713E-003	  1.57349E-002	 -4.25658E-003	  1.31344E-002
  2.04800E+000	 -3.69595E-004	  9.55205E-003	 -8.22285E-004	  6.32557E-003
  2.25280E+000	 -2.87220E-003	  7.83462E-003	 -2.57808E-003	 -3.29587E-003
  2.45760E+000	 -1.81600E-003	  3.59944E-003	 -1.28174E-002	 -8.22822E-003
  2.66240E+000	  9.11760E-004	  7.28593E-003	 -1.65896E-002	 -1.04151E-002
  2.86720E+000	  3.50184E-003	  1.04350E-002	 -2.06907E-002	 -1.37480E-002
  3.07200E+000	  3.53983E-003	  9.90020E-003	 -1.03486E-002	 -2.04327E-002
  3.27680E+000	  2.11349E-003	  5.55609E-003	 -1.19012E-002	 -2.45163E-002
  3.68640E+000	 -7.36588E-003	  1.55766E-003	 -7.43739E-004	 -2.27286E-002
  4.09600E+000	 -8.51967E-003	 -6.18920E-006	  1.31631E-002	 -1.20146E-002
  4.50560E+000	 -9.09484E-003	  8.60028E-003	  7.13093E-004	 -3.90521E-004
  4.91520E+000	 -1.06191E-002	  1.39710E-002	 -7.01786E-003	  8.82941E-004
  5.32480E+000	 -1.30585E-002	  1.55843E-002	 -6.51511E-003	  7.56522E-005
  5.73440E+000	 -6.48519E-003	  1.45085E-002	 -6.49241E-003	 -2.49480E-003
  6.14400E+000	 -2.05880E-003	  4.89664E-003	 -8.02399E-003	  2.24206E-003
  6.55360E+000	 -4.61714E-003	 -7.34443E-003	 -2.05364E-002	  5.27381E-003
  7.37280E+000	 -6.10633E-003	 -2.11022E-003	 -1.48477E-002	  1.03115E-002
  8.19200E+000	 -3.39279E-003	 -8.36714E-003	  3.51009E-003	  1.65832E-002
  9.01120E+000	 -8.98110E-003	 -1.26124E-002	  8.83852E-004	  6.84945E-003
  9.83040E+000	  7.44863E-004	 -1.02020E-002	 -5.59285E-003	 -4.54453E-003
  1.06496E+001	  5.58127E-003	 -7.72939E-003	 -1.59382E-002	 -5.92627E-003
  1.14688E+001	 -1.84335E-003	 -2.60448E-003	 -1.63367E-003	 -5.06205E-003
  1.22880E+001	  9.74505E-004	 -6.87220E-003	  1.15640E-002	  9.79075E-003
  1.31072E+001	  3.62439E-003	 -1.30360E-003	  6.06189E-003	  8.27939E-003
  1.47456E+001	  6.07892E-003	 -3.15715E-003	 -5.54957E-003	  3.55912E-003
  1.63840E+001	 -3.86684E-004	 -1.54522E-002	  9.05320E-004	  4.54755E-003
  1.80224E+001	  1.22120E-002	 -5.26953E-003	  5.27237E-003	  2.01551E-003
  1.96608E+001	  1.81373E-002	  1.43697E-002	  3.26987E-003	  1.28021E-002
  2.12992E+001	  1.00949E-002	  1.13988E-002	  5.72701E-004	  1.80499E-003
  2.29376E+001	  8.04060E-004	  7.95953E-003	 -8.98139E-003	 -8.49554E-003
  2.45760E+001	  6.68726E-003	  1.48174E-002	 -9.70732E-003	  6.05406E-003
  2.62144E+001	 -8.78857E-004	  1.46601E-002	 -1.21643E-002	  4.05755E-003
  2.94912E+001	 -2.30617E-003	  3.83682E-003	  4.95166E-003	  5.85032E-003
  3.27680E+001	 -4.28210E-003	 -6.25613E-003	 -5.58607E-004	  4.14988E-003
  3.60448E+001	  6.46169E-003	 -9.37592E-003	 -1.28762E-002	 -9.94693E-003
  3.93216E+001	  7.72627E-003	  2.27558E-004	 -7.06869E-004	  8.07499E-003
  4.25984E+001	 -7.02777E-003	  3.62140E-003	 -8.97607E-004	 -6.47939E-003
  4.58752E+001	 -1.37666E-002	  1.75443E-002	 -8.64878E-003	 -2.50349E-003
  4.91520E+001	 -1.12797E-002	  8.07617E-003	 -3.83789E-003	 -1.66866E-002
  5.24288E+001	 -5.65160E-003	  5.49947E-003	  3.44847E-003	 -6.20802E-003
  5.89824E+001	 -1.67186E-003	 -2.09711E-003	 -5.77692E-003	 -7.24873E-003
  6.55360E+001	 -6.71401E-003	  1.90512E-003	 -4.36207E-003	 -2.69000E-004
  7.20896E+001	 -1.04880E-002	  1.47434E-003	  5.25061E-003	  9.45264E-004
  7.86432E+001	  6.24111E-004	  4.25572E-003	 -5.44027E-003	  6.58000E-003
  8.51968E+001	  8.97855E-004	 -1.00805E-003	  4.80915E-003	  3.61511E-003
  9.17504E+001	 -1.19618E-003	  5.75309E-004	 -3.28784E-003	 -1.86962E-003
  9.83040E+001	 -5.74981E-003	 -6.42214E-004	 -2.90973E-003	  5.09916E-003
  1.04858E+002	 -6.95138E-004	  6.77586E-003	 -1.55626E-004	  5.93457E-003
  1.17965E+002	  3.14494E-003	 -8.14609E-003	 -5.62907E-003	  2.07248E-003
  1.31072E+002	  2.51341E-003	 -5.19625E-003	  3.11771E-003	 -4.50341E-003
  1.44179E+002	  5.41283E-003	 -3.23424E-003	  1.76047E-003	 -5.47144E-003
  1.57286E+002	  6.66628E-003	 -6.61532E-004	  5.83803E-003	  4.34388E-004
  1.70394E+002	 -3.85737E-003	 -5.26977E-003	 -9.87375E-004	 -9.22459E-003
  1.83501E+002	 -3.03979E-003	 -5.31159E-004	  9.64592E-004	  4.15511E-003
  1.96608E+002	  1.31480E-003	 -8.24068E-003	  6.13339E-004	  3.96759E-003
  2.09715E+002	 -2.73986E-003	 -1.65859E-003	 -5.53822E-003	 -2.58266E-004
  2.35930E+002	  2.87747E-003	 -2.14450E-003	 -8.69562E-004	 -3.03932E-003
  2.62144E+002	 -2.66717E-003	  4.11679E-003	  5.21600E-003	 -1.54459E-003
  2.88358E+002	 -1.88816E-003	  2.59777E-003	 -5.30718E-003	 -1.82475E-003
  3.14573E+002	  3.68364E-003	  3.88158E-003	  6.26285E-003	 -1.20168E-003
  3.40787E+002	  4.61434E-003	  4.36277E-003	 -4.24983E-003	  3.15480E-003
  3.67002E+002	 -3.41601E-003	 -1.74664E-003	  1.80802E-004	  1.56790E-003
  3.93216E+002	 -1.78476E-003	 -4.27793E-003	 -4.25671E-003	  8.26621E-003

"Count Rate"
       0.01311	     163.57422	     134.73511	     129.47083	     119.47632
       0.02621	      94.29932	     121.23108	     130.15747	     119.40002
       0.03932	     133.28552	     103.22571	      80.79529	     126.57166
       0.05243	     108.94775	     146.40808	     115.73792	     114.36462
       0.06554	     130.69153	     112.45728	      90.56091	     125.73242
       0.07864	     136.48987	     130.69153	     137.93945	      82.47375
       0.09175	     137.10022	      95.13855	      97.57996	     105.51453
       0.10486	     146.02661	     159.22546	      99.71619	     112.68616
       0.11796	     145.87402	      84.60999	     100.02136	     134.27734
       0.13107	     101.24207	     161.28540	     106.27747	     146.56067
       0.14418	     112.45728	     136.94763	     120.39185	     135.57434
       0.15729	      94.75708	      94.60449	     110.85510	     103.37830
       0.17039	     103.91235	     131.14929	     127.18201	      93.15491
       0.18350	     110.32104	     116.57715	     105.97229	     103.53088
       0.19661	     105.89600	     127.86865	      91.62903	      76.75171
       0.20972	      86.28845	     129.08936	     108.10852	     131.60706
       0.22282	     142.97485	      86.51733	     113.98315	     124.51172
       0.23593	     146.63696	     148.31543	     112.68616	     136.79504
       0.24904	     104.98047	     118.63708	      98.19031	     113.67798
       0.26214	     126.80054	     104.59900	      94.45190	     115.20386
       0.27525	     107.19299	     110.47363	      95.06226	     100.09766
       0.28836	     101.08948	     146.25549	      77.05688	     136.26099
       0.30147	     106.58264	      95.13855	     112.15210	      88.65356
       0.31457	     150.22278	      93.68896	     139.84680	     106.88782
       0.32768	     124.96948	      84.76257	     106.50635	     121.76514
       0.34079	     103.53088	     107.65076	     129.08936	     125.27466
       0.35389	     112.38098	     113.60168	      97.73254	     118.48450
       0.36700	     113.60168	     109.86328	     119.55261	      94.29932
       0.38011	     107.65076	      99.02954	     104.90417	      89.64539
       0.39322	     112.53357	     108.48999	     106.27747	     100.93689
       0.40632	     107.11670	      83.77075	     116.80603	      84.60999
       0.41943	     140.15198	      94.98596	      78.88794	      82.62634
       0.43254	     105.36194	      83.31299	      88.04321	     109.78699
       0.44564	     122.07031	     104.14124	     137.55798	     121.23108
       0.45875	     152.20642	     131.14929	      96.96960	     117.56897
       0.47186	     132.90405	      95.21484	     110.77881	     161.59058
       0.48497	     119.47632	     138.54980	     119.09485	      90.02686
       0.49807	      75.30212	     114.13574	     173.18726	     119.24744
       0.51118	     136.64246	      99.25842	      82.55005	     147.78137
       0.52429	      75.37842	     140.91492	      95.82520	     116.42456
       0.53740	     122.68066	     136.03210	     109.71069	     131.98853
       0.55050	     125.96130	     140.60974	     116.50085	     128.70789
       0.56361	     147.47620	     135.26917	      94.14673	      99.79248
       0.57672	     159.30176	      95.97778	     117.72156	     111.38916
       0.58982	      97.57996	     108.48999	      97.12219	     103.68347
       0.60293	     131.30188	     123.36731	     138.85498	     116.42456
       0.61604	     132.21741	     128.93677	      99.18213	      90.02686
       0.62915	     118.25562	     112.83875	      88.95874	     127.94495
       0.64225	      93.99414	     105.13306	     124.96948	      98.87695
       0.65536	     105.81970	     104.98047	      91.09497	     111.69434
       0.66847	     128.40271	     117.49268	      99.86877	     142.21191
       0.68157	     119.78149	      96.89331	     102.00500	      73.77625
       0.69468	     127.56348	     116.19568	      97.88513	      95.82520
       0.70779	     153.65601	     128.70789	      87.89063	     107.95593
       0.72090	     142.74597	     115.96680	      93.07861	      81.10046
       0.73400	     156.32629	      91.01868	     134.27734	     152.58789
       0.74711	     133.43811	     112.15210	     109.02405	      80.10864
       0.76022	     125.80872	     102.38647	     124.81689	      91.40015
       0.77332	     116.80603	     131.91223	      87.96692	      86.97510
       0.78643	     139.84680	     100.93689	     108.41370	      92.23938
       0.79954	     136.18469	     130.23376	     136.18469	      65.76538
       0.81265	     111.54175	     150.68054	     120.92590	     135.65063
       0.82575	     126.87683	     129.01306	      99.94507	      94.90967
       0.83886	      86.36475	     123.97766	      77.74353	     108.10852
       0.85197	      79.26941	     144.72961	      75.07324	     104.82788
       0.86508	     116.27197	     144.34814	     114.21204	     125.88501
       0.87818	      89.79797	     122.98584	     110.70251	     101.01318
       0.89129	     158.30994	      98.95325	     131.53076	     104.29382
       0.90440	     129.54712	      92.16309	      83.77075	     133.13293
       0.91750	     109.78699	      93.99414	     110.39734	      96.05408
       0.93061	     134.27734	     104.29382	     102.31018	     111.46545

Monitor Diode	      1.00
