ALV-7004/USB-FAST
Date :	"11/11/2025"
Time :	"3:54:15 PM"
Samplename : 	""
SampMemo(0) : 	""
SampMemo(1) : 	""
SampMemo(2) : 	""
SampMemo(3) : 	""
SampMemo(4) : 	""
SampMemo(5) : 	""
SampMemo(6) : 	""
SampMemo(7) : 	""
SampMemo(8) : 	""
SampMemo(9) : 	""
Temperature [K] :	     298.16000
Viscosity [cp]  :	       0.89000
Refractive Index:	       1.33200
Wavelength [nm] :	       0.00000
Angle [°]       :	       0.00000
Duration [s]    :	         1
FloatDur [ms]   :	          944
Stop TP [ms]   :	     59928
Runs            :	         1
Mode            :	"A-CH0+1  A-CH2+3 "
MeanCR0 [kHz]   :	      54.43785
MeanCR1 [kHz]   :	      52.27301
MeanCR2 [kHz]   :	      51.13708
MeanCR3 [kHz]   :	      54.09453

"Correlation"
  3.12500E-006	 -1.00000E+000	 -1.00000E+000	 -1.00000E+000	 -1.00000E+000
  6.25000E-006	 -1.00000E+000	 -1.00000E+000	 -1.00000E+000	 -1.00000E+000
  9.37500E-006	 -1.00000E+000	 -1.00000E+000	 -1.00000E+000	 -1.00000E+000
  1.25000E-005	 -1.00000E+000	 -1.00000E+000	 -1.00000E+000	 -1.00000E+000
  1.56250E-005	 -1.00000E+000	 -1.00000E+000	 -1.00000E+000	 -1.00000E+000
  1.87500E-005	 -1.00000E+000	 -1.00000E+000	 -1.00000E+000	 -1.00000E+000
  2.18750E-005	 -7.71158E-001	  1.10961E+000	  8.15364E-001	 -5.36488E-001
  2.50000E-005	  1.38747E+001	  1.35191E+001	  1.13185E+001	  2.66948E+001
  2.81250E-005	  2.43263E+000	  2.35055E+000	  3.14940E+000	  6.87970E+000
  3.12500E-005	  1.05958E+000	  2.40945E-001	  1.46371E+000	  3.75100E+000
  3.43750E-005	  6.01894E-001	  2.40945E-001	  8.15364E-001	  2.82397E+000
  3.75000E-005	  9.45156E-001	  4.89134E-001	  6.85695E-001	  4.44626E+000
  4.06250E-005	  1.05958E+000	  1.23370E+000	 -9.23179E-002	  3.51924E+000
  4.37500E-005	  9.45156E-001	  8.61418E-001	  5.56027E-001	  3.63512E+000
  4.68750E-005	  1.44210E-001	  4.89134E-001	  1.20437E+000	  3.28748E+000
  5.00000E-005	  1.11679E+000	  3.02992E-001	  8.80199E-001	  1.78107E+000
  5.62500E-005	  3.15841E-001	  8.61417E-001	  5.56026E-001	  1.89695E+000
  6.25000E-005	  6.01893E-001	  1.78898E-001	  6.20861E-001	  1.66519E+000
  6.87500E-005	  6.01893E-001	  3.65039E-001	  4.91192E-001	  1.49138E+000
  7.50000E-005	  6.59104E-001	  7.37323E-001	  3.61523E-001	  1.37550E+000
  8.12500E-005	  7.73525E-001	  1.23370E+000	  4.91192E-001	  1.66519E+000
  8.75000E-005	  3.15841E-001	  3.02992E-001	  8.80199E-001	  1.31756E+000
  9.37500E-005	 -8.46323E-002	  9.85512E-001	  3.61523E-001	  1.02786E+000
  1.00000E-004	  2.30025E-001	  4.58110E-001	  4.91192E-001	  1.05683E+000
  1.12500E-004	  5.44683E-001	  6.44252E-001	  8.15364E-001	  6.22291E-001
  1.25000E-004	  2.87236E-001	  8.30394E-001	  4.93362E-003	  9.40956E-001
  1.37500E-004	  9.73761E-001	  4.89134E-001	  2.31854E-001	  7.09200E-001
  1.50000E-004	  5.16078E-001	  7.37323E-001	  4.58775E-001	  4.48474E-001
  1.62500E-004	  8.02130E-001	  2.09921E-001	  3.93940E-001	  4.48474E-001
  1.75000E-004	  3.44446E-001	  6.44252E-001	  7.50530E-001	  5.35383E-001
  1.87500E-004	  1.72815E-001	  8.92441E-001	  1.00987E+000	  5.93322E-001
  2.00000E-004	  2.01420E-001	  8.14881E-001	  7.34321E-001	  5.78837E-001
  2.25000E-004	  1.44209E-001	  7.83858E-001	  5.56026E-001	  6.80230E-001
  2.50000E-004	  5.73288E-001	  3.80551E-001	  4.58774E-001	  4.19505E-001
  2.75000E-004	  4.87472E-001	  4.42598E-001	  3.93940E-001	  4.05020E-001
  3.00000E-004	  4.58867E-001	  2.71968E-001	  5.39817E-001	  6.36776E-001
  3.25000E-004	  3.01538E-001	  3.80551E-001	  5.88443E-001	  4.33989E-001
  3.50000E-004	  4.30262E-001	  5.04645E-001	  5.56026E-001	  6.22291E-001
  3.75000E-004	  3.58748E-001	  7.52834E-001	  5.23609E-001	  7.67138E-001
  4.00000E-004	  4.37412E-001	  6.83030E-001	  5.47921E-001	  6.29533E-001
  4.50000E-004	  5.23228E-001	  4.96889E-001	  4.99295E-001	  5.20897E-001
  5.00000E-004	  5.73287E-001	  5.74448E-001	  3.93939E-001	  4.19504E-001
  5.50000E-004	  5.01774E-001	  7.06298E-001	  6.61381E-001	  5.06412E-001
  6.00000E-004	  6.09044E-001	  5.20156E-001	  5.88442E-001	  6.00563E-001
  6.50000E-004	  5.16077E-001	  5.82204E-001	  6.61381E-001	  4.26746E-001
  7.00000E-004	  4.37412E-001	  5.89960E-001	  4.58774E-001	  2.45687E-001
  7.50000E-004	  3.94504E-001	  4.03818E-001	  6.45173E-001	  2.81899E-001
  8.00000E-004	  4.40987E-001	  6.75273E-001	  5.88441E-001	  3.25352E-001
  9.00000E-004	  4.01655E-001	  6.44249E-001	  7.34318E-001	  5.71592E-001
  1.00000E-003	  4.83894E-001	  5.70568E-001	  6.45171E-001	  6.22289E-001
  1.10000E-003	  3.98079E-001	  5.55057E-001	  5.72233E-001	  5.78866E-001
  1.20000E-003	  5.16075E-001	  3.92183E-001	  3.37208E-001	  6.36806E-001
  1.30000E-003	  3.48020E-001	  3.30136E-001	  5.80337E-001	  6.44048E-001
  1.40000E-003	  4.62441E-001	  4.42596E-001	  4.66877E-001	  4.99198E-001
  1.50000E-003	  4.48138E-001	  5.39545E-001	  5.68180E-001	  5.20926E-001
  1.60000E-003	  4.64226E-001	  5.55054E-001	  5.35761E-001	  4.53930E-001
  1.80000E-003	  4.12379E-001	  4.42594E-001	  4.28379E-001	  5.49893E-001
  2.00000E-003	  3.71259E-001	  4.77495E-001	  5.49943E-001	  6.34992E-001
  2.20000E-003	  4.67802E-001	  5.35664E-001	  4.56744E-001	  4.37634E-001
  2.40000E-003	  4.92831E-001	  5.08519E-001	  5.66152E-001	  4.86521E-001
  2.60000E-003	  4.53499E-001	  4.98824E-001	  4.42561E-001	  4.17718E-001
  2.80000E-003	  3.28351E-001	  4.38716E-001	  4.06092E-001	  5.91537E-001
  3.00000E-003	  4.35621E-001	  5.04641E-001	  5.15500E-001	  4.06854E-001
  3.20000E-003	  4.18632E-001	  5.33720E-001	  4.91182E-001	  4.37658E-001
  3.60000E-003	  4.31146E-001	  4.71673E-001	  4.84091E-001	  4.24983E-001
  4.00000E-003	  4.25783E-001	  4.72643E-001	  5.43860E-001	  5.09179E-001
  4.40000E-003	  4.07905E-001	  4.66826E-001	  4.89156E-001	  4.93788E-001
  4.80000E-003	  4.75842E-001	  5.06575E-001	  4.89156E-001	  4.32226E-001
  5.20000E-003	  3.60528E-001	  4.93971E-001	  4.67882E-001	  5.41770E-001
  5.60000E-003	  4.07011E-001	  4.74582E-001	  4.69908E-001	  4.63912E-001
  6.00000E-003	  4.31146E-001	  4.62948E-001	  5.16508E-001	  4.62102E-001
  6.40000E-003	  4.24879E-001	  4.62968E-001	  4.63820E-001	  4.78022E-001
  7.20000E-003	  4.41863E-001	  5.35195E-001	  5.11432E-001	  4.60819E-001
  8.00000E-003	  3.77950E-001	  4.77995E-001	  5.09406E-001	  4.77598E-001
  8.80000E-003	  4.14153E-001	  4.79934E-001	  4.94211E-001	  4.76240E-001
  9.60000E-003	  3.94487E-001	  5.03686E-001	  4.10130E-001	  4.65799E-001
  1.04000E-002	  3.85995E-001	  4.89629E-001	  4.76483E-001	  4.86623E-001
  1.12000E-002	  4.11918E-001	  4.95446E-001	  5.08393E-001	  4.48144E-001
  1.20000E-002	  3.70351E-001	  5.01263E-001	  5.03328E-001	  4.54482E-001
  1.28000E-002	  3.97400E-001	  4.69037E-001	  4.76048E-001	  4.63857E-001
  1.44000E-002	  4.20418E-001	  4.89851E-001	  4.87952E-001	  4.45946E-001
  1.60000E-002	  4.19748E-001	  4.94941E-001	  4.79594E-001	  4.66997E-001
  1.76000E-002	  3.79745E-001	  4.75794E-001	  4.57813E-001	  4.52510E-001
  1.92000E-002	  4.25558E-001	  4.70946E-001	  4.79341E-001	  4.28263E-001
  2.08000E-002	  3.94942E-001	  4.70704E-001	  4.78581E-001	  4.42975E-001
  2.24000E-002	  4.07010E-001	  4.46467E-001	  4.81367E-001	  5.11530E-001
  2.40000E-002	  4.22876E-001	  4.51556E-001	  4.79847E-001	  4.72825E-001
  2.56000E-002	  4.02919E-001	  4.74844E-001	  4.68213E-001	  4.55216E-001
  2.88000E-002	  4.05378E-001	  4.81751E-001	  4.52002E-001	  4.69476E-001
  3.20000E-002	  3.87722E-001	  4.71693E-001	  4.67200E-001	  4.23441E-001
  3.52000E-002	  3.96465E-001	  4.54121E-001	  4.79930E-001	  4.60253E-001
  3.84000E-002	  3.87834E-001	  4.67874E-001	  4.53938E-001	  4.40107E-001
  4.16000E-002	  3.71073E-001	  4.53423E-001	  4.47606E-001	  4.46643E-001
  4.48000E-002	  3.95321E-001	  4.76207E-001	  4.67235E-001	  4.32128E-001
  4.80000E-002	  3.78895E-001	  4.65057E-001	  4.62550E-001	  4.59827E-001
  5.12000E-002	  3.85381E-001	  4.51767E-001	  4.61790E-001	  4.54205E-001
  5.76000E-002	  4.00970E-001	  4.57555E-001	  4.61634E-001	  4.48885E-001
  6.40000E-002	  3.98037E-001	  4.47557E-001	  4.47984E-001	  4.52140E-001
  7.04000E-002	  4.07144E-001	  4.59494E-001	  4.75915E-001	  4.31764E-001
  7.68000E-002	  3.94600E-001	  4.55070E-001	  4.67936E-001	  4.28793E-001
  8.32000E-002	  3.83314E-001	  4.56161E-001	  4.53624E-001	  4.43452E-001
  8.96000E-002	  3.70014E-001	  4.47799E-001	  4.59676E-001	  4.31310E-001
  9.60000E-002	  3.91581E-001	  4.36318E-001	  4.58883E-001	  4.44584E-001
  1.02400E-001	  3.77095E-001	  4.47032E-001	  4.63293E-001	  4.34662E-001
  1.15200E-001	  3.65360E-001	  4.41214E-001	  4.38716E-001	  4.36870E-001
  1.28000E-001	  3.61924E-001	  4.39820E-001	  4.50564E-001	  4.33445E-001
  1.40800E-001	  3.69160E-001	  4.17340E-001	  4.39294E-001	  4.06244E-001
  1.53600E-001	  3.59576E-001	  4.19733E-001	  4.28812E-001	  4.19491E-001
  1.66400E-001	  3.54521E-001	  4.18765E-001	  4.17540E-001	  4.21273E-001
  1.79200E-001	  3.55135E-001	  4.05435E-001	  4.32935E-001	  4.04742E-001
  1.92000E-001	  3.42621E-001	  3.95013E-001	  4.23220E-001	  4.06865E-001
  2.04800E-001	  3.41114E-001	  4.05674E-001	  4.14611E-001	  3.99586E-001
  2.30400E-001	  3.24691E-001	  3.86545E-001	  4.05086E-001	  3.90111E-001
  2.56000E-001	  3.12854E-001	  3.66700E-001	  3.96694E-001	  3.73002E-001
  2.81600E-001	  3.08987E-001	  3.62494E-001	  3.81137E-001	  3.72238E-001
  3.07200E-001	  2.95816E-001	  3.48562E-001	  3.74181E-001	  3.56285E-001
  3.32800E-001	  2.87561E-001	  3.46075E-001	  3.60059E-001	  3.43141E-001
  3.58400E-001	  2.85326E-001	  3.28656E-001	  3.46402E-001	  3.30537E-001
  3.84000E-001	  2.76784E-001	  3.12058E-001	  3.29310E-001	  3.17884E-001
  4.09600E-001	  2.61099E-001	  3.05943E-001	  3.22932E-001	  3.12059E-001
  4.60800E-001	  2.40301E-001	  2.87013E-001	  2.97784E-001	  2.90632E-001
  5.12000E-001	  2.17252E-001	  2.62644E-001	  2.83041E-001	  2.71133E-001
  5.63200E-001	  1.92802E-001	  2.38951E-001	  2.54310E-001	  2.46524E-001
  6.14400E-001	  1.84703E-001	  2.17695E-001	  2.35007E-001	  2.27171E-001
  6.65600E-001	  1.69366E-001	  2.04323E-001	  2.18752E-001	  2.09215E-001
  7.16800E-001	  1.59881E-001	  1.90078E-001	  2.03011E-001	  1.90184E-001
  7.68000E-001	  1.45346E-001	  1.69045E-001	  1.78792E-001	  1.71746E-001
  8.19200E-001	  1.33564E-001	  1.52769E-001	  1.68858E-001	  1.58939E-001
  9.21600E-001	  1.04377E-001	  1.33348E-001	  1.39167E-001	  1.30594E-001
  1.02400E+000	  8.54289E-002	  1.11537E-001	  1.17909E-001	  1.10969E-001
  1.12640E+000	  6.25509E-002	  9.12032E-002	  1.02441E-001	  8.93813E-002
  1.22880E+000	  4.86658E-002	  7.90668E-002	  8.59255E-002	  7.27421E-002
  1.33120E+000	  2.73077E-002	  6.18962E-002	  7.79568E-002	  5.91204E-002
  1.43360E+000	  1.88460E-002	  5.61854E-002	  6.61445E-002	  5.35978E-002
  1.53600E+000	  1.85189E-002	  4.11821E-002	  5.78050E-002	  4.46169E-002
  1.63840E+000	  7.38113E-003	  3.27650E-002	  5.00121E-002	  3.58051E-002
  1.84320E+000	  2.10159E-003	  2.05372E-002	  3.89983E-002	  2.75803E-002
  2.04800E+000	 -7.42329E-004	  1.31401E-002	  2.87783E-002	  1.84821E-002
  2.25280E+000	 -4.42566E-003	  3.14369E-003	  2.60011E-002	  1.03422E-002
  2.45760E+000	 -9.50897E-003	  2.05476E-003	  2.46954E-002	  1.66960E-003
  2.66240E+000	 -3.82381E-003	 -7.95109E-004	  1.78488E-002	 -7.77104E-003
  2.86720E+000	 -3.94902E-004	  5.43630E-003	  1.00480E-002	 -2.14017E-002
  3.07200E+000	  7.40891E-003	  7.76683E-003	  2.46084E-004	 -2.84538E-002
  3.27680E+000	  1.27727E-002	  1.27555E-002	 -1.25989E-002	 -2.97582E-002
  3.68640E+000	  1.90119E-002	  1.87148E-002	 -3.33105E-002	 -2.42108E-002
  4.09600E+000	  1.23832E-002	  1.32944E-002	 -4.13878E-002	 -1.68115E-002
  4.50560E+000	  1.20666E-003	  4.24745E-003	 -3.87473E-002	 -4.52907E-003
  4.91520E+000	  8.29421E-004	 -7.54629E-003	 -2.74740E-002	  5.49123E-003
  5.32480E+000	  1.41476E-003	 -1.46889E-002	 -2.11938E-002	  1.65960E-002
  5.73440E+000	  8.48624E-003	 -1.47992E-002	 -6.36680E-003	  1.10528E-002
  6.14400E+000	  1.49415E-002	 -1.10681E-002	  5.50763E-003	  1.50809E-002
  6.55360E+000	  2.04171E-002	 -7.75354E-003	  2.00542E-002	  8.11233E-003
  7.37280E+000	  1.26405E-002	 -7.86927E-005	  2.05392E-002	  6.24426E-003
  8.19200E+000	 -1.02358E-002	  5.73953E-003	  1.98391E-002	  5.85553E-003
  9.01120E+000	 -2.01762E-003	  1.22440E-002	  2.80568E-002	  1.59285E-002
  9.83040E+000	  6.85148E-003	  9.16840E-003	  4.39347E-002	  2.07434E-002
  1.06496E+001	 -3.47043E-003	  1.54016E-002	  2.14180E-002	  1.02737E-002
  1.14688E+001	 -9.90594E-003	  1.24494E-002	  6.37956E-003	 -4.85716E-004
  1.22880E+001	 -5.99156E-003	  2.44416E-002	 -9.36000E-003	 -1.00118E-002
  1.31072E+001	 -6.34505E-003	  2.36893E-002	 -2.12316E-002	 -6.44385E-003
  1.47456E+001	 -2.75994E-003	 -1.32609E-002	 -1.39132E-002	 -6.55055E-003
  1.63840E+001	  6.92523E-003	 -3.85445E-003	  2.15812E-002	 -4.53064E-003
  1.80224E+001	 -5.31773E-003	 -2.94320E-003	  1.38046E-002	  7.46172E-003
  1.96608E+001	  1.53927E-003	  1.25968E-003	 -9.83447E-003	  9.80636E-004
  2.12992E+001	 -7.84157E-003	  6.94256E-003	 -1.62205E-003	 -1.03025E-002
  2.29376E+001	 -7.19769E-003	  3.41802E-003	 -1.11686E-003	  2.42411E-003
  2.45760E+001	 -8.41216E-003	  1.31614E-003	  6.14136E-003	 -2.55956E-003
  2.62144E+001	  2.58676E-004	  1.21970E-002	  1.26176E-002	  9.94787E-003
  2.94912E+001	 -1.49345E-002	  2.21052E-002	  9.09653E-004	 -9.30725E-003
  3.27680E+001	 -4.21453E-004	  1.26273E-002	  3.25263E-003	  1.41130E-003
  3.60448E+001	  8.23615E-003	 -1.40623E-002	 -6.38009E-003	 -5.84108E-003
  3.93216E+001	  4.58993E-003	  8.97435E-003	  1.69598E-002	  9.26948E-003
  4.25984E+001	 -1.03114E-002	  1.48836E-003	  1.17695E-002	 -5.00921E-003
  4.58752E+001	  1.92286E-003	  5.72179E-003	 -5.45237E-003	  7.32800E-003
  4.91520E+001	  5.33757E-003	 -1.02592E-003	  1.28395E-002	  8.59342E-003
  5.24288E+001	  9.85431E-003	  1.00909E-002	 -4.10286E-003	  2.19986E-003
  5.89824E+001	 -3.42330E-003	  4.60438E-003	  3.41381E-003	  1.07966E-002
  6.55360E+001	 -1.72605E-002	  2.27036E-002	  5.46990E-003	  8.81677E-003
  7.20896E+001	 -9.68646E-004	 -8.80751E-003	 -5.75657E-003	 -5.63878E-003
  7.86432E+001	 -6.90040E-003	 -1.14451E-003	  1.18230E-002	  3.98021E-003
  8.51968E+001	 -2.25990E-003	 -7.14721E-003	  9.47447E-003	 -6.84712E-003
  9.17504E+001	  6.76879E-003	  8.68971E-003	  1.24812E-003	 -4.12982E-003
  9.83040E+001	 -2.30693E-004	 -3.45186E-003	  1.93138E-003	 -9.29242E-003
  1.04858E+002	 -5.73394E-003	  1.78434E-003	  1.52208E-002	 -8.30244E-003
  1.17965E+002	  9.23730E-004	  7.43873E-003	  3.58263E-003	 -5.25998E-004
  1.31072E+002	  1.23417E-002	  6.31247E-003	  1.19415E-003	 -5.15586E-003
  1.44179E+002	  4.13943E-003	 -2.99437E-003	  2.21170E-003	 -1.69828E-004
  1.57286E+002	 -1.99751E-002	  1.31144E-003	 -2.02261E-003	  3.61447E-003
  1.70394E+002	 -1.85528E-003	 -2.10246E-003	  3.83325E-003	 -5.88495E-003
  1.83501E+002	  7.43264E-003	 -9.28774E-004	  6.06826E-003	  1.20871E-003
  1.96608E+002	 -2.61035E-003	 -1.61407E-003	 -4.33618E-004	  1.00997E-002
  2.09715E+002	 -5.50134E-004	  3.73533E-003	  2.95368E-003	 -8.84117E-003
  2.35930E+002	  1.16749E-002	  7.75153E-003	 -5.35848E-003	 -3.10104E-005
  2.62144E+002	  5.95897E-003	 -5.59137E-003	 -8.89464E-003	  3.10591E-003
  2.88358E+002	 -1.04695E-002	  4.38710E-003	 -1.68913E-003	 -7.70257E-003
  3.14573E+002	 -6.29083E-003	 -1.00833E-002	  8.77480E-003	 -2.36839E-003
  3.40787E+002	  6.11385E-003	  8.32788E-004	  1.46439E-004	 -9.06129E-003
  3.67002E+002	 -3.13068E-003	 -3.39116E-003	 -9.17719E-003	 -2.76983E-003
  3.93216E+002	 -3.22712E-003	 -5.36166E-003	  1.11996E-004	 -7.01397E-004

"Count Rate"
       0.01311	      62.25586	      57.83081	      61.72180	      45.92896
       0.02621	      43.25867	      61.64551	      51.72729	      59.35669
       0.03932	      39.97803	      63.93433	      53.71094	      49.74365
       0.05243	      60.65369	      43.25867	      55.99976	      54.55017
       0.06554	      60.65369	      43.41125	      40.28320	      54.47388
       0.07864	      68.13049	      31.35681	      43.48755	      38.75732
       0.09175	      49.81995	      68.13049	      39.59656	      63.70544
       0.10486	      74.76807	      52.71912	      59.28040	      57.37305
       0.11796	      52.79541	      31.05164	      40.28320	      56.68640
       0.13107	      53.93982	      53.93982	      58.82263	      51.65100
       0.14418	      44.02161	      46.31042	      41.35132	      66.29944
       0.15729	      52.41394	      67.29126	      52.94800	      66.45203
       0.17039	      39.74915	      51.34583	      39.67285	      48.82813
       0.18350	      60.65369	      55.92346	      44.86084	      45.77637
       0.19661	      39.74915	      37.23145	      35.55298	      50.50659
       0.20972	      48.37036	      63.70544	      63.78174	      57.52563
       0.22282	      29.44946	      64.23950	      64.54468	      40.74097
       0.23593	      45.62378	      78.20129	      40.58838	      61.79810
       0.24904	      76.98059	      56.53381	      37.30774	      38.83362
       0.26214	      48.37036	      69.80896	      50.12512	      46.84448
       0.27525	      43.56384	      60.11963	      64.77356	      54.01611
       0.28836	      59.81445	      61.18774	      74.61548	      81.86340
       0.30147	      70.72449	      64.31580	      51.65100	      61.03516
       0.31457	      48.59924	      37.07886	      58.44116	      56.83899
       0.32768	      54.70276	      41.27502	      35.85815	      45.54749
       0.34079	      50.88806	      51.80359	      35.01892	      62.78992
       0.35389	      40.58838	      42.34314	      33.26416	      77.97241
       0.36700	      43.79272	      64.23950	      40.35950	      49.28589
       0.38011	      61.18774	      50.35400	      36.62109	      37.30774
       0.39322	      54.77905	      58.74634	      44.78455	      40.51208
       0.40632	      55.77087	      56.53381	      66.52832	      42.34314
       0.41943	      44.47937	      67.06238	      30.36499	      35.01892
       0.43254	      60.88257	      49.59106	      38.29956	      43.33496
       0.44564	      39.97803	      53.32947	      45.85266	      44.02161
       0.45875	      38.45215	      58.89893	      55.23682	      36.54480
       0.47186	      38.90991	      59.20410	      34.56116	      52.87170
       0.48497	      52.64282	      51.65100	      48.67554	      45.08972
       0.49807	      53.40576	      48.82813	      41.80908	      50.27771
       0.51118	      47.14966	      64.01062	      55.84717	      64.46838
       0.52429	      78.65906	      58.67004	      46.61560	      42.49573
       0.53740	      40.43579	      38.60474	      47.45483	      43.86902
       0.55050	      63.09509	      28.30505	      46.84448	      57.52563
       0.56361	      48.59924	      42.11426	      57.06787	      46.23413
       0.57672	      33.64563	      50.96436	      44.86084	      38.98621
       0.58982	      41.35132	      39.90173	      53.25317	      65.46021
       0.60293	      67.52014	      37.46033	      68.51196	      50.12512
       0.61604	      71.25854	      63.62915	      49.66736	      58.21228
       0.62915	      40.28320	      42.95349	      85.83069	      55.84717
       0.64225	      53.02429	      48.06519	      60.80627	      26.77917
       0.65536	      59.20410	      34.10339	      26.47400	      64.62097
       0.66847	      59.66187	      43.64014	      63.32397	      52.33765
       0.68157	      37.61292	      44.63196	      43.56384	      52.64282
       0.69468	      59.43298	      35.93445	      50.88806	      45.31860
       0.70779	      49.97253	      44.25049	      77.66724	      51.65100
       0.72090	      50.58289	      28.15247	      46.23413	      72.09778
       0.73400	      59.89075	      70.80078	      72.02148	      57.22046
       0.74711	      89.56909	      53.63464	      57.52563	      47.37854
       0.76022	      44.63196	      40.05432	      50.96436	      49.36218
       0.77332	      69.12231	      44.93713	      62.17957	      59.81445
       0.78643	      66.52832	      39.67285	      56.15234	      73.01331
       0.79954	      48.67554	      77.36206	      53.40576	      40.05432
       0.81265	      31.43311	      48.14148	      52.18506	      63.01880
       0.82575	      56.07605	      48.90442	      59.66187	      46.46301
       0.83886	      55.46570	      39.90173	      67.74902	      39.90173
       0.85197	      56.30493	      50.27771	      36.16333	      56.68640
       0.86508	      58.44116	      51.19324	      46.46301	      61.11145
       0.87818	      43.86902	      55.31311	      41.58020	      64.54468
       0.89129	      55.77087	      66.37573	      51.80359	      49.97253
       0.90440	      62.71362	      52.71912	      36.92627	      64.01062
       0.91750	      67.67273	      48.29407	      48.98071	      65.91797
       0.93061	      66.22314	      44.78455	      59.43298	      87.20398

Monitor Diode	      1.00
