ALV-7004/USB-FAST
Date :	"11/11/2025"
Time :	"3:53:19 PM"
Samplename : 	""
SampMemo(0) : 	""
SampMemo(1) : 	""
SampMemo(2) : 	""
SampMemo(3) : 	""
SampMemo(4) : 	""
SampMemo(5) : 	""
SampMemo(6) : 	""
SampMemo(7) : 	""
SampMemo(8) : 	""
SampMemo(9) : 	""
Temperature [K] :	     298.16000
Viscosity [cp]  :	       0.89000
Refractive Index:	       1.33200
Wavelength [nm] :	       0.00000
Angle [°]       :	       0.00000
Duration [s]    :	         1
FloatDur [ms]   :	          944
Stop TP [ms]   :	     58137
Runs            :	         1
Mode            :	"A-CH0+1  A-CH2+3 "
MeanCR0 [kHz]   :	      58.48461
MeanCR1 [kHz]   :	      58.45812
MeanCR2 [kHz]   :	      59.11403
MeanCR3 [kHz]   :	      56.96297

"Correlation"
  3.12500E-006	 -1.00000E+000	 -1.00000E+000	 -1.00000E+000	 -1.00000E+000
  6.25000E-006	 -1.00000E+000	 -1.00000E+000	 -1.00000E+000	 -1.00000E+000
  9.37500E-006	 -1.00000E+000	 -1.00000E+000	 -1.00000E+000	 -1.00000E+000
  1.25000E-005	 -1.00000E+000	 -1.00000E+000	 -1.00000E+000	 -1.00000E+000
  1.56250E-005	 -1.00000E+000	 -1.00000E+000	 -1.00000E+000	 -1.00000E+000
  1.87500E-005	 -1.00000E+000	 -1.00000E+000	 -1.00000E+000	 -1.00000E+000
  2.18750E-005	 -9.00866E-001	  9.84485E-001	  1.03773E+000	 -6.86496E-001
  2.50000E-005	  1.19866E+001	  1.21968E+001	  1.14204E+001	  2.39758E+001
  2.81250E-005	  3.56018E+000	  2.77052E+000	  2.00807E+000	  8.71864E+000
  3.12500E-005	  1.08182E+000	  1.87750E+000	  1.03773E+000	  5.68809E+000
  3.43750E-005	  1.37923E+000	  1.08371E+000	  1.03773E+000	  4.43408E+000
  3.75000E-005	  1.18096E+000	  1.08371E+000	  1.03773E+000	  3.18006E+000
  4.06250E-005	  1.77576E+000	  1.67906E+000	  1.61993E+000	  3.49356E+000
  4.37500E-005	  1.08182E+000	  5.87588E-001	  5.52553E-001	  1.71704E+000
  4.68750E-005	  8.83554E-001	  7.86037E-001	  1.64415E-001	  2.55305E+000
  5.00000E-005	  7.84419E-001	  4.38752E-001	  2.12932E-001	  2.86655E+000
  5.62500E-005	  3.87882E-001	  6.86812E-001	  6.98104E-001	  1.82154E+000
  6.25000E-005	  9.33121E-001	  4.88364E-001	  4.55518E-001	  1.40353E+000
  6.87500E-005	  4.37449E-001	  8.85261E-001	  1.18328E+000	  1.14228E+000
  7.50000E-005	  7.34852E-001	  2.89915E-001	  6.98104E-001	  1.24678E+000
  8.12500E-005	  4.87016E-001	  2.40303E-001	  1.18328E+000	  8.28775E-001
  8.75000E-005	  4.37449E-001	  5.87588E-001	  9.40691E-001	  1.19453E+000
  9.37500E-005	  6.35718E-001	  4.38752E-001	  6.98104E-001	  8.81026E-001
  1.00000E-004	  4.87016E-001	  6.86812E-001	  8.67915E-001	  9.33277E-001
  1.12500E-004	  4.62232E-001	  4.38752E-001	  8.67915E-001	  7.24274E-001
  1.25000E-004	  5.11799E-001	  5.62782E-001	  6.49587E-001	  3.84644E-001
  1.37500E-004	  7.59635E-001	  5.13170E-001	  5.04035E-001	  5.41396E-001
  1.50000E-004	  8.83553E-001	  6.12394E-001	  4.07001E-001	  5.15271E-001
  1.62500E-004	  8.33986E-001	  4.13946E-001	  8.67915E-001	  5.93647E-001
  1.75000E-004	  7.84419E-001	  3.14721E-001	  6.01070E-001	  6.19772E-001
  1.87500E-004	  1.15262E-001	  6.37200E-001	  5.76811E-001	  1.32516E+000
  2.00000E-004	  5.61366E-001	  4.75960E-001	  4.55518E-001	  8.81025E-001
  2.25000E-004	  4.74624E-001	  6.74409E-001	  6.13199E-001	  7.50399E-001
  2.50000E-004	  4.74624E-001	  5.75185E-001	  9.16431E-001	  7.24273E-001
  2.75000E-004	  6.48109E-001	  5.13170E-001	  4.43388E-001	  5.41396E-001
  3.00000E-004	  5.86150E-001	  2.40303E-001	  6.37457E-001	  4.89145E-001
  3.25000E-004	  6.10933E-001	  5.50379E-001	  4.07000E-001	  4.63020E-001
  3.50000E-004	  4.87015E-001	  3.64333E-001	  5.76811E-001	  3.06268E-001
  3.75000E-004	  2.88747E-001	  5.87588E-001	  4.55518E-001	  3.97706E-001
  4.00000E-004	  3.44509E-001	  3.08519E-001	  6.07133E-001	  5.28333E-001
  4.50000E-004	  5.42778E-001	  6.99214E-001	  4.91905E-001	  6.58959E-001
  5.00000E-004	  5.73757E-001	  5.50378E-001	  3.70612E-001	  6.26303E-001
  5.50000E-004	  5.11798E-001	  3.76736E-001	  4.07000E-001	  4.10769E-001
  6.00000E-004	  4.93211E-001	  4.63557E-001	  6.67780E-001	  5.41395E-001
  6.50000E-004	  3.19726E-001	  3.02317E-001	  4.31258E-001	  4.63019E-001
  7.00000E-004	  4.56035E-001	  4.51154E-001	  5.10099E-001	  3.45455E-001
  7.50000E-004	  5.92345E-001	  4.82161E-001	  6.31392E-001	  5.67521E-001
  8.00000E-004	  4.83916E-001	  5.10067E-001	  5.22227E-001	  5.80582E-001
  9.00000E-004	  5.48972E-001	  5.62780E-001	  4.94936E-001	  4.63018E-001
  1.00000E-003	  3.81683E-001	  4.75959E-001	  5.13130E-001	  4.07502E-001
  1.10000E-003	  3.75488E-001	  4.54253E-001	  5.19195E-001	  5.41394E-001
  1.20000E-003	  5.33483E-001	  3.82936E-001	  5.13130E-001	  5.74051E-001
  1.30000E-003	  4.21957E-001	  4.35649E-001	  4.19128E-001	  6.03442E-001
  1.40000E-003	  5.73756E-001	  3.08518E-001	  4.43386E-001	  3.81376E-001
  1.50000E-003	  4.99405E-001	  5.22470E-001	  4.64613E-001	  4.82612E-001
  1.60000E-003	  4.06465E-001	  5.48824E-001	  4.32771E-001	  4.54851E-001
  1.80000E-003	  4.15758E-001	  5.86033E-001	  3.47866E-001	  4.36890E-001
  2.00000E-003	  4.82364E-001	  4.43398E-001	  5.69225E-001	  3.96069E-001
  2.20000E-003	  5.08697E-001	  5.00762E-001	  5.28289E-001	  4.54851E-001
  2.40000E-003	  5.53617E-001	  4.30995E-001	  3.23607E-001	  4.40156E-001
  2.60000E-003	  3.97171E-001	  4.21719E-001	  3.90318E-001	  4.30359E-001
  2.80000E-003	  4.90109E-001	  4.85285E-001	  4.93417E-001	  5.03836E-001
  3.00000E-003	  5.13344E-001	  5.02340E-001	  4.84320E-001	  3.55249E-001
  3.20000E-003	  4.54478E-001	  4.97683E-001	  4.29734E-001	  3.92799E-001
  3.60000E-003	  4.45184E-001	  4.13212E-001	  4.46411E-001	  4.41784E-001
  4.00000E-003	  4.49056E-001	  4.37244E-001	  4.16088E-001	  4.07494E-001
  4.40000E-003	  4.14205E-001	  4.48872E-001	  4.57025E-001	  3.68332E-001
  4.80000E-003	  4.07234E-001	  4.91509E-001	  4.00927E-001	  3.90376E-001
  5.20000E-003	  4.35890E-001	  4.17088E-001	  3.97894E-001	  4.14052E-001
  5.60000E-003	  4.29694E-001	  4.34143E-001	  4.32766E-001	  3.90376E-001
  6.00000E-003	  4.14205E-001	  4.08561E-001	  3.91072E-001	  4.28748E-001
  6.40000E-003	  3.84765E-001	  3.95837E-001	  4.45316E-001	  3.84269E-001
  7.20000E-003	  4.01029E-001	  4.27234E-001	  4.13097E-001	  3.74905E-001
  8.00000E-003	  4.14582E-001	  3.83820E-001	  3.94145E-001	  3.92459E-001
  8.80000E-003	  3.26292E-001	  4.25296E-001	  3.95661E-001	  3.83070E-001
  9.60000E-003	  3.60756E-001	  4.19482E-001	  3.91491E-001	  3.75314E-001
  1.04000E-002	  3.06156E-001	  3.84208E-001	  3.59272E-001	  3.84703E-001
  1.12000E-002	  3.95608E-001	  3.70641E-001	  3.35392E-001	  3.43064E-001
  1.20000E-002	  3.63080E-001	  4.09791E-001	  3.67990E-001	  3.46330E-001
  1.28000E-002	  3.66933E-001	  3.72247E-001	  3.62524E-001	  3.29803E-001
  1.44000E-002	  3.56672E-001	  3.65076E-001	  3.50963E-001	  3.68177E-001
  1.60000E-002	  3.32470E-001	  3.70309E-001	  3.59492E-001	  3.28578E-001
  1.76000E-002	  3.72161E-001	  3.43950E-001	  3.63282E-001	  3.56517E-001
  1.92000E-002	  3.06331E-001	  3.59018E-001	  2.95597E-001	  3.51822E-001
  2.08000E-002	  3.37310E-001	  3.55142E-001	  3.36345E-001	  3.41004E-001
  2.24000E-002	  3.28791E-001	  3.28202E-001	  3.38454E-001	  3.11000E-001
  2.40000E-002	  2.93359E-001	  3.19674E-001	  3.16090E-001	  2.95284E-001
  2.56000E-002	  3.10676E-001	  3.25015E-001	  2.83218E-001	  3.08588E-001
  2.88000E-002	  3.00027E-001	  2.77237E-001	  2.90799E-001	  3.10119E-001
  3.20000E-002	  2.85603E-001	  2.94293E-001	  2.81701E-001	  2.72154E-001
  3.52000E-002	  2.54818E-001	  2.77043E-001	  2.86440E-001	  2.75113E-001
  3.84000E-002	  2.60820E-001	  2.61462E-001	  2.72130E-001	  2.48782E-001
  4.16000E-002	  2.42911E-001	  2.41982E-001	  2.60190E-001	  2.35107E-001
  4.48000E-002	  2.23065E-001	  2.30986E-001	  2.35696E-001	  2.43656E-001
  4.80000E-002	  1.96056E-001	  2.43585E-001	  2.24230E-001	  2.39189E-001
  5.12000E-002	  2.01579E-001	  2.25614E-001	  2.17239E-001	  2.21615E-001
  5.76000E-002	  1.92383E-001	  2.14440E-001	  1.99281E-001	  1.94616E-001
  6.40000E-002	  1.81562E-001	  2.01064E-001	  2.06199E-001	  1.92852E-001
  7.04000E-002	  1.75297E-001	  1.94521E-001	  1.69525E-001	  1.71387E-001
  7.68000E-002	  1.55258E-001	  1.59827E-001	  1.67177E-001	  1.59517E-001
  8.32000E-002	  1.60776E-001	  1.64964E-001	  1.65708E-001	  1.82062E-001
  8.96000E-002	  1.31493E-001	  1.47905E-001	  1.47181E-001	  1.45362E-001
  9.60000E-002	  1.43739E-001	  1.28409E-001	  1.22881E-001	  1.21209E-001
  1.02400E-001	  1.19659E-001	  1.18359E-001	  1.21026E-001	  1.20242E-001
  1.15200E-001	  1.08986E-001	  1.16170E-001	  1.20362E-001	  1.01178E-001
  1.28000E-001	  9.66878E-002	  1.01086E-001	  9.46986E-002	  8.31514E-002
  1.40800E-001	  8.55309E-002	  9.19337E-002	  8.14952E-002	  8.73684E-002
  1.53600E-001	  7.52648E-002	  8.45174E-002	  7.74666E-002	  7.16960E-002
  1.66400E-001	  6.07437E-002	  5.90110E-002	  7.24813E-002	  5.94185E-002
  1.79200E-001	  6.18569E-002	  5.68640E-002	  5.92483E-002	  6.46058E-002
  1.92000E-001	  5.08935E-002	  4.00577E-002	  4.87448E-002	  7.06551E-002
  2.04800E-001	  4.44472E-002	  4.10039E-002	  4.09671E-002	  5.03309E-002
  2.30400E-001	  4.00112E-002	  3.38837E-002	  4.56379E-002	  4.10435E-002
  2.56000E-001	  2.64146E-002	  2.70593E-002	  3.76629E-002	  3.50313E-002
  2.81600E-001	  2.91793E-002	  2.74957E-002	  2.39964E-002	  2.51947E-002
  3.07200E-001	  2.07804E-002	  2.01431E-002	  2.72367E-002	  2.23608E-002
  3.32800E-001	  1.88754E-002	  1.20991E-002	  3.13130E-002	  1.84292E-002
  3.58400E-001	  1.08826E-002	  1.37965E-002	  2.40438E-002	  1.48100E-002
  3.84000E-001	  1.67703E-002	  6.47946E-003	  1.45017E-002	  1.35334E-002
  4.09600E-001	  1.96189E-002	  5.40301E-003	  1.83900E-002	  1.12226E-002
  4.60800E-001	  8.61595E-003	  4.86936E-003	  1.20818E-002	  7.80373E-003
  5.12000E-001	  9.07646E-003	  8.07752E-003	  5.79675E-003	  8.28983E-003
  5.63200E-001	  4.19787E-003	  5.75815E-004	 -3.38126E-003	  4.12531E-003
  6.14400E-001	  5.70505E-003	 -5.41504E-003	  9.91848E-003	  7.72632E-003
  6.65600E-001	  1.34719E-003	  3.77139E-003	  9.14571E-003	  9.37932E-003
  7.16800E-001	  5.97144E-003	  5.36007E-003	  4.62327E-003	  5.18443E-006
  7.68000E-001	  3.18721E-003	  6.96645E-003	  3.83401E-004	 -7.48671E-003
  8.19200E-001	  2.30529E-003	  6.13207E-003	  2.49794E-003	  3.54435E-004
  9.21600E-001	  3.99784E-003	 -3.18576E-004	 -4.62528E-003	 -7.91299E-003
  1.02400E+000	 -1.40373E-003	  1.16513E-003	 -4.29884E-003	 -7.00063E-003
  1.12640E+000	  8.48826E-004	 -2.60926E-004	  4.95109E-004	 -9.97444E-003
  1.22880E+000	 -1.27985E-003	 -1.12021E-004	 -1.78680E-003	 -8.03219E-003
  1.33120E+000	 -7.82686E-003	 -8.44476E-003	  5.46903E-003	 -5.82765E-003
  1.43360E+000	 -4.46832E-003	 -7.58137E-003	  4.92356E-003	 -1.84988E-003
  1.53600E+000	  9.45721E-004	 -7.34490E-003	  8.08134E-003	 -6.93107E-003
  1.63840E+000	  2.42271E-003	 -3.87799E-003	  3.82691E-003	 -8.43383E-003
  1.84320E+000	  5.86706E-004	  1.89684E-003	 -6.59811E-003	  1.21269E-003
  2.04800E+000	 -2.83216E-003	  1.51086E-003	 -1.88975E-003	 -3.67885E-003
  2.25280E+000	 -3.07347E-003	 -1.07196E-002	  4.83886E-003	  2.46381E-003
  2.45760E+000	 -6.62189E-003	 -7.49829E-004	  3.97983E-003	  8.33460E-003
  2.66240E+000	 -7.16623E-003	  5.53582E-003	  1.18874E-003	  3.32262E-003
  2.86720E+000	 -4.24319E-003	 -8.51603E-004	 -2.46827E-003	 -1.43011E-006
  3.07200E+000	 -3.20325E-003	  4.22677E-003	 -1.84556E-003	  4.41168E-004
  3.27680E+000	 -7.63857E-003	  1.73487E-003	 -5.48368E-003	 -6.03652E-004
  3.68640E+000	 -5.79373E-003	  3.45625E-003	  1.03822E-003	 -9.40138E-004
  4.09600E+000	 -6.98238E-003	  9.60594E-003	 -3.14491E-003	  9.26981E-003
  4.50560E+000	 -9.35585E-003	  7.09893E-003	 -4.64931E-003	 -9.09309E-004
  4.91520E+000	  4.93388E-003	 -1.92521E-003	 -4.55250E-003	 -4.09619E-003
  5.32480E+000	  5.94474E-003	  1.15302E-003	  1.61124E-004	  5.37156E-003
  5.73440E+000	  5.24496E-003	  2.11680E-003	 -1.69817E-003	  6.63330E-003
  6.14400E+000	  2.96828E-003	  9.84380E-003	 -2.71764E-003	  3.43764E-003
  6.55360E+000	  2.26845E-003	  3.18441E-003	 -5.46236E-003	 -2.55597E-003
  7.37280E+000	 -3.14672E-003	 -3.15216E-003	  1.84409E-004	 -2.83764E-003
  8.19200E+000	  1.63082E-003	 -2.13619E-003	  2.82700E-003	  2.78614E-004
  9.01120E+000	  7.56398E-005	  2.92932E-003	  1.17620E-003	 -1.08474E-003
  9.83040E+000	  2.12436E-003	 -1.89175E-003	  1.60226E-003	 -5.98547E-003
  1.06496E+001	 -7.25256E-005	  1.41696E-003	 -3.00248E-003	  2.75649E-003
  1.14688E+001	 -2.41622E-003	 -4.08407E-003	  5.00443E-003	 -2.70771E-003
  1.22880E+001	  1.67172E-003	 -2.95566E-004	  9.06185E-003	 -5.84099E-004
  1.31072E+001	  1.37809E-003	 -1.10464E-003	  4.04309E-003	  3.66841E-004
  1.47456E+001	 -6.59683E-004	  1.03447E-003	  8.86421E-004	  1.24324E-003
  1.63840E+001	 -3.17117E-003	 -5.44701E-004	 -1.14256E-004	  1.79700E-004
  1.80224E+001	 -2.81512E-003	  1.09074E-003	  3.90554E-003	 -3.93948E-003
  1.96608E+001	  6.69249E-004	 -3.09970E-003	 -5.38831E-003	  1.44431E-003
  2.12992E+001	  1.51166E-003	  1.06182E-003	 -2.08356E-003	 -2.03197E-003
  2.29376E+001	  3.86988E-004	 -2.33349E-003	  1.94694E-003	  2.64111E-003
  2.45760E+001	  2.28727E-003	 -1.46223E-003	  2.89111E-003	 -1.17130E-003
  2.62144E+001	 -2.34304E-003	 -1.90468E-003	  2.67715E-003	 -3.48140E-004
  2.94912E+001	  1.50614E-003	 -8.92477E-004	  2.25622E-003	 -4.15440E-005
  3.27680E+001	 -1.50807E-003	 -2.14888E-003	 -4.59071E-003	 -3.44600E-003
  3.60448E+001	 -6.05730E-004	 -2.20453E-003	  9.31758E-005	 -7.07370E-004
  3.93216E+001	 -1.89953E-003	 -2.29310E-006	  1.07417E-003	  8.03768E-004
  4.25984E+001	  2.50910E-003	  2.26248E-003	  2.79967E-003	  1.37201E-003
  4.58752E+001	  7.07837E-004	  2.69299E-003	 -3.82157E-003	  4.77638E-004
  4.91520E+001	 -1.69061E-003	  1.06360E-003	 -2.18224E-003	  4.69767E-004
  5.24288E+001	 -1.96643E-003	 -7.98855E-004	  3.12887E-003	  3.58667E-004
  5.89824E+001	  6.72686E-004	 -5.47947E-004	 -2.37869E-003	  2.06496E-003
  6.55360E+001	 -8.90904E-004	 -3.66727E-004	  1.39539E-003	  1.54998E-003
  7.20896E+001	  4.19112E-006	 -2.17743E-003	 -1.66904E-003	 -3.99956E-004
  7.86432E+001	 -9.61363E-004	  8.76868E-004	 -1.29369E-003	 -8.95012E-004
  8.51968E+001	  1.14023E-003	 -9.41468E-004	 -4.03027E-003	  1.28271E-003
  9.17504E+001	  7.22214E-004	  1.57081E-003	  2.07396E-005	  1.55607E-003
  9.83040E+001	 -2.05024E-004	  8.70231E-005	 -3.01713E-003	  1.79448E-003
  1.04858E+002	  6.95012E-004	  2.16154E-004	 -3.06887E-003	 -1.44987E-003
  1.17965E+002	 -1.46703E-003	 -2.74466E-003	 -2.95286E-003	 -6.16573E-004
  1.31072E+002	  1.19559E-003	 -8.64550E-004	 -4.56459E-006	 -1.84775E-004
  1.44179E+002	 -1.64303E-004	  1.04404E-003	  1.47908E-003	 -9.78151E-004
  1.57286E+002	 -1.33055E-003	 -7.25338E-004	  2.49782E-004	  1.43404E-003
  1.70394E+002	  3.36568E-004	 -3.54928E-004	  4.02604E-004	 -1.90947E-003
  1.83501E+002	 -1.23194E-003	  1.91238E-003	  1.62804E-003	  2.14587E-003
  1.96608E+002	  1.69047E-003	 -1.60393E-004	  8.20468E-004	 -2.98247E-003
  2.09715E+002	 -2.01015E-005	 -1.45306E-004	  1.81909E-003	 -5.94366E-004
  2.35930E+002	  5.23247E-004	  1.26001E-004	 -3.50480E-004	  6.49393E-005
  2.62144E+002	 -5.47200E-004	 -9.71221E-004	 -1.05339E-003	  1.90592E-004
  2.88358E+002	  1.16329E-003	  1.59258E-003	 -3.76764E-004	 -1.16080E-003
  3.14573E+002	 -4.61308E-004	  1.01365E-003	 -6.95439E-004	  2.99616E-004
  3.40787E+002	 -5.39192E-004	 -2.04362E-003	 -2.14802E-004	 -1.12656E-003
  3.67002E+002	 -8.78981E-004	  3.34961E-004	  6.57233E-004	 -2.13714E-004
  3.93216E+002	 -1.54927E-004	 -6.01494E-004	 -3.63174E-004	  5.62498E-004

"Count Rate"
       0.01311	      53.93982	      54.16870	      59.43298	      59.58557
       0.02621	      55.84717	      53.78723	      56.76270	      47.98889
       0.03932	      58.74634	      50.81177	      57.83081	      56.76270
       0.05243	      57.60193	      60.72998	      60.50110	      55.23682
       0.06554	      68.74084	      59.58557	      60.04333	      52.56653
       0.07864	      63.40027	      57.98340	      61.72180	      59.50928
       0.09175	      62.94250	      56.91528	      55.38940	      55.54199
       0.10486	      53.86353	      58.51746	      57.52563	      60.27222
       0.11796	      56.61011	      55.99976	      56.61011	      54.62646
       0.13107	      56.83899	      53.32947	      63.62915	      63.40027
       0.14418	      58.51746	      65.38391	      58.59375	      57.14417
       0.15729	      50.65918	      58.89893	      57.75452	      63.55286
       0.17039	      59.12781	      58.74634	      53.71094	      60.34851
       0.18350	      59.50928	      52.33765	      61.03516	      55.38940
       0.19661	      47.76001	      56.22864	      64.84985	      66.22314
       0.20972	      56.53381	      53.78723	      48.52295	      49.20959
       0.22282	      56.07605	      55.69458	      56.61011	      58.51746
       0.23593	      56.22864	      50.58289	      60.80627	      57.67822
       0.24904	      51.87988	      59.43298	      52.79541	      51.87988
       0.26214	      63.93433	      48.59924	      62.78992	      62.17957
       0.27525	      51.80359	      59.28040	      52.56653	      48.06519
       0.28836	      57.83081	      66.07056	      64.01062	      57.37305
       0.30147	      55.61829	      73.47107	      46.53931	      50.43030
       0.31457	      62.48474	      50.04883	      61.87439	      59.28040
       0.32768	      59.05151	      62.71362	      64.31580	      47.83630
       0.34079	      47.98889	      60.72998	      56.99158	      53.40576
       0.35389	      57.37305	      61.11145	      59.58557	      57.14417
       0.36700	      63.17139	      59.20410	      61.41663	      51.42212
       0.38011	      61.26404	      50.58289	      61.11145	      58.89893
       0.39322	      59.12781	      69.27490	      55.99976	      51.87988
       0.40632	      58.13599	      55.23682	      61.18774	      48.98071
       0.41943	      51.49841	      42.87720	      61.41663	      51.34583
       0.43254	      54.85535	      61.03516	      62.10327	      56.15234
       0.44564	      50.20142	      52.18506	      46.76819	      62.71362
       0.45875	      62.33215	      56.15234	      50.50659	      46.84448
       0.47186	      57.22046	      63.17139	      50.65918	      55.16052
       0.48497	      56.15234	      55.54199	      49.89624	      52.87170
       0.49807	      63.32397	      56.91528	      57.14417	      54.47388
       0.51118	      54.16870	      62.78992	      64.39209	      61.64551
       0.52429	      58.36487	      60.80627	      61.64551	      54.77905
       0.53740	      53.71094	      53.78723	      60.80627	      57.75452
       0.55050	      61.03516	      49.43848	      64.69727	      54.93164
       0.56361	      56.30493	      57.44934	      67.97791	      56.68640
       0.57672	      53.78723	      64.69727	      67.90161	      47.68372
       0.58982	      70.95337	      64.01062	      59.35669	      53.02429
       0.60293	      60.50110	      60.34851	      52.71912	      64.31580
       0.61604	      57.83081	      56.53381	      52.87170	      66.90979
       0.62915	      61.26404	      48.37036	      56.30493	      55.38940
       0.64225	      56.99158	      58.59375	      58.67004	      54.16870
       0.65536	      64.69727	      57.44934	      50.81177	      59.12781
       0.66847	      56.99158	      66.29944	      49.36218	      51.26953
       0.68157	      59.12781	      53.71094	      56.76270	      59.35669
       0.69468	      60.88257	      54.09241	      61.41663	      62.71362
       0.70779	      51.80359	      51.42212	      53.93982	      55.61829
       0.72090	      55.38940	      51.80359	      56.91528	      50.73547
       0.73400	      54.70276	      53.93982	      59.96704	      53.48206
       0.74711	      54.77905	      59.35669	      54.85535	      58.89893
       0.76022	      64.31580	      67.67273	      55.84717	      59.73816
       0.77332	      54.09241	      52.71912	      60.27222	      51.04065
       0.78643	      61.26404	      60.42480	      65.15503	      58.28857
       0.79954	      58.89893	      54.16870	      53.86353	      56.76270
       0.81265	      57.14417	      55.00793	      54.55017	      54.16870
       0.82575	      60.19592	      57.14417	      59.81445	      45.39490
       0.83886	      52.41394	      53.93982	      53.55835	      64.31580
       0.85197	      54.93164	      55.92346	      65.61279	      59.50928
       0.86508	      59.05151	      62.25586	      57.44934	      57.52563
       0.87818	      54.70276	      55.84717	      58.36487	      52.94800
       0.89129	      55.38940	      59.28040	      60.72998	      54.09241
       0.90440	      64.46838	      55.99976	      58.82263	      63.78174
       0.91750	      58.13599	      64.84985	      65.76538	      56.99158
       0.93061	      59.28040	      54.39758	      56.76270	      51.26953

Monitor Diode	      1.00
