ALV-7004/USB-FAST
Date :	"11/11/2025"
Time :	"3:58:29 PM"
Samplename : 	""
SampMemo(0) : 	""
SampMemo(1) : 	""
SampMemo(2) : 	""
SampMemo(3) : 	""
SampMemo(4) : 	""
SampMemo(5) : 	""
SampMemo(6) : 	""
SampMemo(7) : 	""
SampMemo(8) : 	""
SampMemo(9) : 	""
Temperature [K] :	     298.16000
Viscosity [cp]  :	       0.89000
Refractive Index:	       1.33200
Wavelength [nm] :	       0.00000
Angle [°]       :	       0.00000
Duration [s]    :	         1
FloatDur [ms]   :	          944
Stop TP [ms]   :	     68065
Runs            :	         1
Mode            :	"A-CH0+1  A-CH2+3 "
MeanCR0 [kHz]   :	      55.87896
MeanCR1 [kHz]   :	      56.97462
MeanCR2 [kHz]   :	      58.07771
MeanCR3 [kHz]   :	      54.13055

"Correlation"
  3.12500E-006	 -1.00000E+000	 -1.00000E+000	 -1.00000E+000	 -1.00000E+000
  6.25000E-006	 -1.00000E+000	 -1.00000E+000	 -1.00000E+000	 -1.00000E+000
  9.37500E-006	 -1.00000E+000	 -1.00000E+000	 -1.00000E+000	 -1.00000E+000
  1.25000E-005	 -1.00000E+000	 -1.00000E+000	 -1.00000E+000	 -1.00000E+000
  1.56250E-005	 -1.00000E+000	 -1.00000E+000	 -1.00000E+000	 -1.00000E+000
  1.87500E-005	 -1.00000E+000	 -1.00000E+000	 -1.00000E+000	 -1.00000E+000
  2.18750E-005	 -6.74214E-001	  1.40259E+000	  1.51321E+000	 -8.84276E-001
  2.50000E-005	  1.20314E+001	  1.32066E+001	  1.01586E+001	  2.39963E+001
  2.81250E-005	  3.34381E+000	  2.13382E+000	  8.09511E-001	  7.91073E+000
  3.12500E-005	  2.36645E+000	  2.44720E+000	  1.31215E+000	  5.24908E+000
  3.43750E-005	  1.82348E+000	  4.46064E-002	  1.61374E+000	  3.74467E+000
  3.75000E-005	  1.38910E+000	  1.19367E+000	  6.08454E-001	  3.39750E+000
  4.06250E-005	  7.37524E-001	  9.84752E-001	  9.10039E-001	  2.00882E+000
  4.37500E-005	  5.20334E-001	  6.71370E-001	  1.61374E+000	  3.51323E+000
  4.68750E-005	  7.37524E-001	  1.19367E+000	  1.41268E+000	  2.24027E+000
  5.00000E-005	  5.20334E-001	  7.23601E-001	  1.16136E+000	  2.47171E+000
  5.62500E-005	  1.11761E+000	  6.71370E-001	  9.60303E-001	  2.58744E+000
  6.25000E-005	  1.40250E-001	  6.71370E-001	  9.10039E-001	  2.06668E+000
  6.87500E-005	  5.74631E-001	  7.75831E-001	  3.06869E-001	  1.37234E+000
  7.50000E-005	  6.83227E-001	  1.14144E+000	  3.06869E-001	  9.67304E-001
  8.12500E-005	  6.83227E-001	  4.10219E-001	  5.58190E-001	  1.14089E+000
  8.75000E-005	  7.37524E-001	  1.03698E+000	  5.58190E-001	  1.02517E+000
  9.37500E-005	  5.20334E-001	  3.05758E-001	  8.09510E-001	  7.35857E-001
  1.00000E-004	  6.56078E-001	  6.45255E-001	  4.32529E-001	  9.67304E-001
  1.12500E-004	  4.11738E-001	  5.66909E-001	  5.83322E-001	  5.04409E-001
  1.25000E-004	  1.94548E-001	  9.58637E-001	  5.83322E-001	  4.17616E-001
  1.37500E-004	  6.56078E-001	  7.75831E-001	  6.33586E-001	  5.62271E-001
  1.50000E-004	  5.20334E-001	  6.19140E-001	  5.33057E-001	  3.30823E-001
  1.62500E-004	  5.47482E-001	  1.42871E+000	  4.07397E-001	  6.20133E-001
  1.75000E-004	  5.47482E-001	  7.23600E-001	  5.58189E-001	  5.33340E-001
  1.87500E-004	  6.28929E-001	  9.58637E-001	  3.82265E-001	  6.20133E-001
  2.00000E-004	  3.84589E-001	  6.97485E-001	  4.57661E-001	  5.62270E-001
  2.25000E-004	  6.56077E-001	  4.49391E-001	  3.69698E-001	  5.18874E-001
  2.50000E-004	  5.61057E-001	  6.06082E-001	  5.95887E-001	  6.20132E-001
  2.75000E-004	  6.83226E-001	  6.19139E-001	  4.07397E-001	  8.08183E-001
  3.00000E-004	  6.15354E-001	  4.75506E-001	  5.95887E-001	  1.42772E-001
  3.25000E-004	  5.20333E-001	  4.62448E-001	  2.94302E-001	  2.72961E-001
  3.50000E-004	  4.79610E-001	  2.66585E-001	  5.20491E-001	  4.75478E-001
  3.75000E-004	  5.61057E-001	  5.40794E-001	  4.45095E-001	  5.62270E-001
  4.00000E-004	  3.64227E-001	  5.01621E-001	  4.82792E-001	  4.97175E-001
  4.50000E-004	  3.91376E-001	  6.19139E-001	  4.26245E-001	  5.69502E-001
  5.00000E-004	  4.99971E-001	  4.82034E-001	  4.38811E-001	  5.33339E-001
  5.50000E-004	  4.93184E-001	  4.75505E-001	  7.59245E-001	  6.77993E-001
  6.00000E-004	  6.22141E-001	  3.97160E-001	  5.64471E-001	  5.98433E-001
  6.50000E-004	  5.67843E-001	  4.82034E-001	  6.52434E-001	  3.23590E-001
  7.00000E-004	  4.59248E-001	  5.14678E-001	  5.39339E-001	  4.97175E-001
  7.50000E-004	  4.11738E-001	  4.49390E-001	  4.38811E-001	  6.20132E-001
  8.00000E-004	  3.30290E-001	  5.50585E-001	  5.01640E-001	  5.44187E-001
  9.00000E-004	  4.28704E-001	  4.26538E-001	  4.41951E-001	  6.12897E-001
  1.00000E-003	  4.28704E-001	  4.52653E-001	  5.07923E-001	  5.22488E-001
  1.10000E-003	  4.93183E-001	  5.34263E-001	  5.29914E-001	  5.36954E-001
  1.20000E-003	  3.60858E-001	  5.63643E-001	  5.45649E-001	  5.76734E-001
  1.30000E-003	  4.62696E-001	  5.04884E-001	  4.16845E-001	  4.86325E-001
  1.40000E-003	  3.40522E-001	  4.72240E-001	  4.41978E-001	  5.29721E-001
  1.50000E-003	  5.88264E-001	  5.79965E-001	  4.76535E-001	  5.36954E-001
  1.60000E-003	  4.32150E-001	  5.03249E-001	  4.12130E-001	  5.08020E-001
  1.80000E-003	  4.10091E-001	  4.26536E-001	  4.93811E-001	  4.73665E-001
  2.00000E-003	  3.88031E-001	  4.98352E-001	  3.52441E-001	  4.26652E-001
  2.20000E-003	  4.44028E-001	  3.84099E-001	  4.51400E-001	  4.86322E-001
  2.40000E-003	  4.60996E-001	  3.92260E-001	  3.79144E-001	  5.31527E-001
  2.60000E-003	  3.67669E-001	  5.21203E-001	  4.04277E-001	  4.55583E-001
  2.80000E-003	  4.66087E-001	  4.51019E-001	  4.54541E-001	  4.80898E-001
  3.00000E-003	  4.60996E-001	  4.68973E-001	  3.88569E-001	  4.06762E-001
  3.20000E-003	  3.86330E-001	  4.74681E-001	  4.41185E-001	  3.85964E-001
  3.60000E-003	  4.32145E-001	  4.33876E-001	  4.19980E-001	  4.28456E-001
  4.00000E-003	  4.42326E-001	  3.85726E-001	  4.09769E-001	  4.26648E-001
  4.40000E-003	  3.35424E-001	  3.95519E-001	  4.86737E-001	  4.19415E-001
  4.80000E-003	  3.61725E-001	  3.90623E-001	  3.78354E-001	  3.47088E-001
  5.20000E-003	  3.74452E-001	  4.40405E-001	  3.93276E-001	  4.67331E-001
  5.60000E-003	  4.81354E-001	  4.24083E-001	  3.78354E-001	  4.73660E-001
  6.00000E-003	  3.88027E-001	  4.11025E-001	  4.15267E-001	  4.23935E-001
  6.40000E-003	  4.17288E-001	  4.20835E-001	  4.03477E-001	  4.19857E-001
  7.20000E-003	  3.87169E-001	  4.28996E-001	  4.06618E-001	  4.23474E-001
  8.00000E-003	  3.81654E-001	  4.43686E-001	  4.23111E-001	  4.31158E-001
  8.80000E-003	  3.78685E-001	  3.74725E-001	  4.15650E-001	  3.71489E-001
  9.60000E-003	  3.73594E-001	  3.55547E-001	  3.70098E-001	  4.26666E-001
  1.04000E-002	  4.07955E-001	  3.84111E-001	  3.60674E-001	  3.99543E-001
  1.12000E-002	  3.50687E-001	  3.68605E-001	  3.74810E-001	  3.70612E-001
  1.20000E-002	  3.26507E-001	  3.95128E-001	  3.72454E-001	  3.51174E-001
  1.28000E-002	  3.47487E-001	  3.83327E-001	  3.65956E-001	  3.54772E-001
  1.44000E-002	  3.41972E-001	  3.80675E-001	  3.65956E-001	  3.96360E-001
  1.60000E-002	  3.65728E-001	  3.84143E-001	  3.45340E-001	  3.87545E-001
  1.76000E-002	  3.35185E-001	  3.48413E-001	  3.57931E-001	  4.02462E-001
  1.92000E-002	  3.44305E-001	  3.67999E-001	  3.54593E-001	  3.62682E-001
  2.08000E-002	  3.18641E-001	  3.40456E-001	  3.56557E-001	  3.45731E-001
  2.24000E-002	  3.13975E-001	  3.34131E-001	  3.19644E-001	  3.55450E-001
  2.40000E-002	  3.16520E-001	  3.36783E-001	  3.61465E-001	  3.12732E-001
  2.56000E-002	  2.86473E-001	  3.21597E-001	  3.15092E-001	  3.41539E-001
  2.88000E-002	  2.70247E-001	  3.17414E-001	  3.08711E-001	  3.11278E-001
  3.20000E-002	  2.54894E-001	  2.93213E-001	  2.90942E-001	  3.00229E-001
  3.52000E-002	  2.53197E-001	  2.91070E-001	  2.82696E-001	  2.92657E-001
  3.84000E-002	  2.44713E-001	  2.63425E-001	  2.57760E-001	  2.89065E-001
  4.16000E-002	  2.44501E-001	  2.48531E-001	  2.48827E-001	  2.57195E-001
  4.48000E-002	  2.42085E-001	  2.46366E-001	  2.56877E-001	  2.63863E-001
  4.80000E-002	  2.18542E-001	  2.21577E-001	  2.15154E-001	  2.59794E-001
  5.12000E-002	  2.04463E-001	  2.35123E-001	  2.26565E-001	  2.49242E-001
  5.76000E-002	  1.97804E-001	  2.14875E-001	  2.04351E-001	  2.05670E-001
  6.40000E-002	  1.72722E-001	  2.12528E-001	  1.99759E-001	  1.90807E-001
  7.04000E-002	  1.71312E-001	  1.78275E-001	  1.79485E-001	  1.85381E-001
  7.68000E-002	  1.48403E-001	  1.59301E-001	  1.67410E-001	  1.58514E-001
  8.32000E-002	  1.44214E-001	  1.45560E-001	  1.57200E-001	  1.48286E-001
  8.96000E-002	  1.26237E-001	  1.51935E-001	  1.39921E-001	  1.47833E-001
  9.60000E-002	  1.19449E-001	  1.39265E-001	  1.22494E-001	  1.39978E-001
  1.02400E-001	  1.20251E-001	  1.23548E-001	  1.20695E-001	  1.31051E-001
  1.15200E-001	  9.61109E-002	  1.08120E-001	  1.11937E-001	  1.12243E-001
  1.28000E-001	  8.11089E-002	  1.15515E-001	  9.46471E-002	  1.02846E-001
  1.40800E-001	  7.83574E-002	  1.02663E-001	  8.06330E-002	  8.96914E-002
  1.53600E-001	  6.59017E-002	  7.82279E-002	  6.64225E-002	  7.36626E-002
  1.66400E-001	  5.73842E-002	  7.11275E-002	  7.13311E-002	  7.43125E-002
  1.79200E-001	  5.31153E-002	  5.94419E-002	  5.64335E-002	  6.47051E-002
  1.92000E-001	  4.18200E-002	  5.14282E-002	  4.60654E-002	  6.03459E-002
  2.04800E-001	  3.85620E-002	  5.13811E-002	  4.46971E-002	  5.19715E-002
  2.30400E-001	  3.69243E-002	  3.03883E-002	  3.16338E-002	  3.96053E-002
  2.56000E-001	  1.60726E-002	  2.57404E-002	  3.27693E-002	  3.06310E-002
  2.81600E-001	  1.41765E-002	  1.62077E-002	  2.64373E-002	  2.35765E-002
  3.07200E-001	  1.58532E-002	  1.70041E-002	  1.04784E-002	  2.25224E-002
  3.32800E-001	  1.37329E-002	  9.29293E-003	  8.07937E-003	  1.46385E-002
  3.58400E-001	  8.50279E-003	  6.65273E-003	  1.10734E-002	  2.43784E-002
  3.84000E-001	  3.92086E-003	  8.14427E-003	 -7.61661E-004	  1.21680E-002
  4.09600E-001	  7.98874E-003	  5.51369E-003	  2.24736E-003	  1.68829E-002
  4.60800E-001	  4.89340E-003	  5.99152E-003	  2.18600E-003	  8.80638E-003
  5.12000E-001	 -4.57065E-003	  5.93332E-003	 -7.89973E-004	 -7.09784E-003
  5.63200E-001	 -9.13535E-003	 -2.40820E-003	 -3.91280E-004	  2.70536E-003
  6.14400E-001	 -8.96728E-003	  6.83766E-003	  1.82395E-003	 -7.07652E-003
  6.65600E-001	  2.53542E-003	  4.61114E-003	  1.60667E-002	 -3.79171E-003
  7.16800E-001	 -7.80746E-003	  6.10944E-004	  1.29062E-002	  3.21270E-003
  7.68000E-001	 -1.66608E-003	  4.08598E-003	  5.43827E-003	  1.13804E-002
  8.19200E-001	  2.35768E-005	  6.85679E-003	  8.83610E-003	  1.08515E-002
  9.21600E-001	 -3.85713E-003	  4.20931E-003	  2.66442E-003	  1.85006E-002
  1.02400E+000	 -7.89857E-003	  2.16983E-003	 -3.51313E-003	  8.56333E-003
  1.12640E+000	 -7.35310E-003	 -1.82962E-004	 -2.41069E-003	  8.13849E-004
  1.22880E+000	 -6.14358E-003	  8.61406E-003	 -3.15600E-004	  4.96167E-003
  1.33120E+000	 -2.72812E-003	  1.58629E-002	 -6.25696E-003	  8.86374E-003
  1.43360E+000	 -1.15749E-003	  6.12614E-003	 -8.61368E-003	  3.80640E-003
  1.53600E+000	  4.25046E-003	  4.07258E-003	 -6.98014E-003	 -9.67280E-004
  1.63840E+000	 -2.60152E-004	 -2.66299E-003	 -4.13297E-003	  2.52795E-003
  1.84320E+000	 -6.09278E-003	 -1.28072E-002	 -5.99351E-003	 -2.53398E-003
  2.04800E+000	 -5.28927E-003	  2.23578E-003	 -2.54434E-003	 -4.32007E-003
  2.25280E+000	 -8.46602E-003	 -5.28961E-003	  6.63833E-004	  4.39721E-004
  2.45760E+000	 -4.05182E-003	  4.97734E-003	 -4.17698E-003	  5.74595E-004
  2.66240E+000	 -5.95216E-004	 -2.87505E-003	 -3.97382E-003	  8.11409E-004
  2.86720E+000	  1.80375E-003	 -1.90908E-003	 -1.07539E-003	 -3.57699E-003
  3.07200E+000	  2.15799E-003	 -4.47308E-003	  1.01342E-002	  3.72461E-003
  3.27680E+000	 -2.48659E-003	  8.36277E-004	  2.88422E-003	  3.58879E-003
  3.68640E+000	 -4.79641E-003	 -3.21485E-003	  2.68670E-003	  7.65930E-003
  4.09600E+000	  7.36202E-003	  1.85170E-003	  5.66411E-003	  1.71031E-003
  4.50560E+000	 -2.61309E-003	  2.82045E-003	  5.97647E-003	 -1.88354E-003
  4.91520E+000	  3.16306E-003	 -4.18615E-004	  6.99406E-003	 -2.09848E-003
  5.32480E+000	 -2.08909E-003	  4.92052E-003	  1.68546E-003	 -5.01773E-003
  5.73440E+000	 -4.93994E-003	  6.86055E-004	 -4.54625E-003	  5.53004E-003
  6.14400E+000	 -2.65835E-003	 -7.86077E-003	 -5.82872E-003	 -3.04593E-003
  6.55360E+000	 -2.24764E-003	 -3.33502E-003	 -4.39524E-003	 -1.85564E-003
  7.37280E+000	  5.29780E-003	 -4.99706E-003	 -5.65929E-004	 -1.95144E-003
  8.19200E+000	 -3.01952E-003	  2.39315E-003	 -2.40637E-003	 -1.77784E-004
  9.01120E+000	 -4.49656E-003	  5.16896E-003	 -1.31175E-003	 -2.55771E-003
  9.83040E+000	 -1.86239E-003	 -8.34462E-004	  2.89658E-003	  5.30177E-003
  1.06496E+001	  4.44268E-003	  4.99183E-003	  1.96433E-003	 -3.11842E-005
  1.14688E+001	  1.44947E-003	  4.08540E-003	 -1.54619E-003	  3.02522E-003
  1.22880E+001	 -2.61822E-003	 -6.98090E-003	 -4.49891E-003	  5.26314E-003
  1.31072E+001	 -6.34588E-003	 -2.07754E-003	 -7.30113E-004	  6.23495E-003
  1.47456E+001	  8.48239E-004	 -5.34720E-004	  3.17365E-003	  3.08841E-003
  1.63840E+001	 -2.91537E-003	  3.06064E-004	 -4.44587E-004	  1.20140E-003
  1.80224E+001	 -3.12455E-003	  8.18890E-004	  1.18483E-003	 -4.33814E-003
  1.96608E+001	  2.59111E-003	 -1.01306E-003	 -2.22164E-004	  3.86222E-003
  2.12992E+001	 -5.67034E-005	  3.41942E-003	  1.09583E-003	 -1.07924E-003
  2.29376E+001	 -1.50724E-003	  3.28212E-003	  3.69947E-003	 -1.87726E-003
  2.45760E+001	 -1.56678E-003	 -2.73560E-003	 -2.96886E-003	  5.33924E-003
  2.62144E+001	 -1.12567E-003	  3.37838E-004	  2.15634E-003	  2.88115E-003
  2.94912E+001	  2.57164E-003	 -6.20203E-004	  3.34600E-004	  1.09132E-003
  3.27680E+001	  5.21753E-004	  2.79549E-003	  2.60787E-004	 -2.24197E-004
  3.60448E+001	 -1.86716E-003	  5.55519E-004	 -4.04689E-004	  4.34293E-004
  3.93216E+001	 -3.38390E-003	  1.22982E-003	 -2.04044E-003	  4.49160E-003
  4.25984E+001	  3.05353E-004	  1.14873E-003	 -4.01273E-003	 -1.56465E-003
  4.58752E+001	 -1.27405E-003	 -3.17192E-003	  5.68307E-004	 -1.67828E-003
  4.91520E+001	 -9.01153E-004	  3.35871E-004	 -4.44566E-004	 -5.17033E-004
  5.24288E+001	  2.43423E-004	 -8.04161E-004	 -1.68964E-003	 -8.14354E-004
  5.89824E+001	  1.51899E-003	  5.94258E-004	 -2.29124E-003	 -1.26066E-003
  6.55360E+001	  2.62666E-004	 -3.57122E-004	 -5.50892E-004	  1.44242E-003
  7.20896E+001	 -8.90221E-004	 -8.57406E-005	 -1.23836E-003	 -9.21395E-004
  7.86432E+001	  5.37618E-004	 -2.21510E-004	 -7.84146E-004	  2.27200E-004
  8.51968E+001	 -1.07606E-004	 -8.64641E-004	 -1.24939E-003	  4.00624E-004
  9.17504E+001	  6.07553E-005	 -8.34052E-004	 -2.50990E-004	  2.20086E-003
  9.83040E+001	 -8.83117E-004	 -1.27326E-004	  9.45863E-004	 -1.62230E-003
  1.04858E+002	  6.92302E-004	 -1.09817E-003	 -2.34432E-004	 -1.27608E-003
  1.17965E+002	  1.73872E-004	 -1.25019E-003	  8.22854E-004	 -2.98048E-005
  1.31072E+002	 -2.17797E-004	  1.62015E-004	 -3.03346E-005	 -4.71216E-007
  1.44179E+002	 -8.54487E-004	 -2.54637E-004	  2.69844E-003	  1.82544E-003
  1.57286E+002	  4.19546E-004	 -1.62999E-003	 -2.16851E-003	  1.08683E-003
  1.70394E+002	  2.16962E-004	 -1.13639E-003	  4.28456E-004	  1.61829E-003
  1.83501E+002	 -1.11604E-003	 -3.93354E-004	 -7.18900E-004	  4.24278E-004
  1.96608E+002	  1.43448E-003	 -1.32505E-003	 -7.66222E-004	 -1.56957E-003
  2.09715E+002	 -2.33493E-004	 -7.44326E-004	 -6.53642E-004	 -3.79428E-003
  2.35930E+002	 -4.24150E-004	 -4.41735E-004	 -1.14054E-004	 -2.80349E-003
  2.62144E+002	  2.81395E-005	  2.25821E-003	  2.33956E-004	  4.93987E-004
  2.88358E+002	  8.61046E-004	  9.59449E-004	  9.72258E-004	 -7.03401E-004
  3.14573E+002	 -5.16534E-004	  6.28914E-004	  1.78509E-003	  1.32556E-003
  3.40787E+002	 -5.22784E-004	 -1.17384E-003	 -9.32568E-004	  2.44229E-003
  3.67002E+002	  5.02491E-004	 -1.41200E-003	 -2.55542E-003	 -3.68109E-003
  3.93216E+002	 -2.12240E-004	  7.46390E-004	 -3.19477E-004	 -6.86044E-004

"Count Rate"
       0.01311	      53.63464	      50.73547	      56.45752	      60.72998
       0.02621	      57.37305	      57.37305	      58.28857	      51.26953
       0.03932	      53.63464	      55.46570	      54.39758	      48.59924
       0.05243	      51.11694	      54.77905	      53.10059	      46.38672
       0.06554	      52.64282	      59.50928	      55.31311	      49.66736
       0.07864	      57.22046	      61.26404	      56.53381	      46.84448
       0.09175	      58.74634	      54.09241	      51.42212	      49.28589
       0.10486	      50.50659	      52.79541	      68.20679	      66.90979
       0.11796	      55.84717	      62.94250	      60.65369	      53.78723
       0.13107	      53.71094	      54.09241	      73.47107	      46.23413
       0.14418	      60.80627	      65.23132	      60.04333	      56.68640
       0.15729	      51.87988	      56.83899	      63.01880	      51.26953
       0.17039	      56.07605	      62.33215	      46.69189	      58.89893
       0.18350	      52.41394	      56.76270	      54.93164	      53.93982
       0.19661	      51.49841	      53.86353	      54.01611	      51.95618
       0.20972	      53.32947	      63.55286	      51.26953	      50.35400
       0.22282	      60.42480	      55.46570	      66.98608	      46.38672
       0.23593	      55.23682	      49.89624	      58.44116	      51.87988
       0.24904	      55.92346	      57.22046	      50.27771	      59.96704
       0.26214	      56.45752	      48.52295	      51.95618	      57.60193
       0.27525	      53.71094	      47.60742	      61.11145	      56.38123
       0.28836	      57.22046	      52.79541	      58.05969	      58.44116
       0.30147	      47.98889	      59.58557	      57.52563	      49.05701
       0.31457	      57.67822	      60.65369	      54.32129	      57.44934
       0.32768	      58.74634	      63.55286	      57.98340	      47.45483
       0.34079	      51.65100	      58.13599	      53.17688	      50.88806
       0.35389	      57.98340	      55.46570	      54.39758	      51.72729
       0.36700	      57.83081	      52.94800	      59.12781	      48.21777
       0.38011	      53.48206	      56.91528	      51.26953	      53.25317
       0.39322	      50.50659	      61.95068	      53.32947	      45.47119
       0.40632	      56.30493	      54.85535	      60.11963	      54.39758
       0.41943	      52.41394	      60.04333	      64.08691	      46.92078
       0.43254	      52.18506	      55.99976	      56.91528	      61.11145
       0.44564	      60.72998	      57.83081	      66.52832	      62.48474
       0.45875	      50.65918	      57.60193	      49.51477	      46.84448
       0.47186	      47.45483	      55.84717	      63.55286	      54.01611
       0.48497	      59.20410	      54.62646	      49.89624	      51.87988
       0.49807	      47.30225	      41.58020	      48.90442	      52.79541
       0.51118	      65.00244	      54.77905	      55.69458	      51.34583
       0.52429	      54.39758	      52.33765	      51.80359	      56.99158
       0.53740	      57.60193	      54.09241	      64.69727	      45.92896
       0.55050	      52.94800	      48.14148	      61.11145	      51.80359
       0.56361	      52.94800	      53.55835	      60.27222	      60.88257
       0.57672	      52.56653	      58.82263	      52.94800	      63.01880
       0.58982	      54.01611	      60.27222	      55.77087	      58.82263
       0.60293	      59.58557	      57.60193	      54.70276	      66.29944
       0.61604	      55.77087	      58.89893	      60.42480	      59.66187
       0.62915	      48.37036	      55.54199	      51.34583	      55.54199
       0.64225	      57.98340	      56.45752	      52.94800	      54.01611
       0.65536	      60.11963	      60.72998	      59.73816	      49.36218
       0.66847	      53.25317	      58.05969	      55.00793	      56.22864
       0.68157	      49.97253	      53.32947	      62.48474	      54.39758
       0.69468	      49.43848	      59.58557	      65.53650	      59.20410
       0.70779	      63.55286	      63.32397	      57.29675	      58.13599
       0.72090	      50.88806	      54.09241	      56.68640	      50.04883
       0.73400	      59.28040	      71.56372	      60.57739	      55.92346
       0.74711	      49.05701	      56.53381	      56.38123	      53.40576
       0.76022	      61.18774	      53.32947	      58.82263	      50.27771
       0.77332	      53.55835	      55.23682	      56.15234	      54.32129
       0.78643	      54.70276	      50.88806	      57.98340	      56.76270
       0.79954	      49.66736	      61.03516	      61.03516	      47.83630
       0.81265	      61.49292	      49.20959	      55.38940	      50.35400
       0.82575	      57.90710	      54.16870	      64.54468	      53.63464
       0.83886	      54.39758	      58.59375	      54.47388	      55.00793
       0.85197	      52.33765	      55.00793	      56.76270	      51.65100
       0.86508	      48.90442	      50.50659	      55.54199	      48.21777
       0.87818	      55.00793	      58.97522	      58.89893	      52.94800
       0.89129	      58.51746	      55.92346	      57.22046	      46.46301
       0.90440	      65.30762	      64.46838	      53.02429	      50.81177
       0.91750	      58.36487	      48.29407	      55.00793	      53.48206
       0.93061	      55.84717	      51.19324	      55.92346	      48.75183

Monitor Diode	      1.00
