ALV-7004/USB-FAST
Date :	"11/11/2025"
Time :	"3:56:40 PM"
Samplename : 	""
SampMemo(0) : 	""
SampMemo(1) : 	""
SampMemo(2) : 	""
SampMemo(3) : 	""
SampMemo(4) : 	""
SampMemo(5) : 	""
SampMemo(6) : 	""
SampMemo(7) : 	""
SampMemo(8) : 	""
SampMemo(9) : 	""
Temperature [K] :	     298.16000
Viscosity [cp]  :	       0.89000
Refractive Index:	       1.33200
Wavelength [nm] :	       0.00000
Angle [°]       :	       0.00000
Duration [s]    :	         1
FloatDur [ms]   :	          944
Stop TP [ms]   :	     67656
Runs            :	         1
Mode            :	"A-CH0+1  A-CH2+3 "
MeanCR0 [kHz]   :	      44.51858
MeanCR1 [kHz]   :	      45.89399
MeanCR2 [kHz]   :	      46.45242
MeanCR3 [kHz]   :	      45.48814

"Correlation"
  3.12500E-006	 -1.00000E+000	 -1.00000E+000	 -1.00000E+000	 -1.00000E+000
  6.25000E-006	 -1.00000E+000	 -1.00000E+000	 -1.00000E+000	 -1.00000E+000
  9.37500E-006	 -1.00000E+000	 -1.00000E+000	 -1.00000E+000	 -1.00000E+000
  1.25000E-005	 -1.00000E+000	 -1.00000E+000	 -1.00000E+000	 -1.00000E+000
  1.56250E-005	 -1.00000E+000	 -1.00000E+000	 -1.00000E+000	 -1.00000E+000
  1.87500E-005	 -1.00000E+000	 -1.00000E+000	 -1.00000E+000	 -1.00000E+000
  2.18750E-005	 -1.00000E+000	  6.09889E-001	  1.67141E+000	 -8.36126E-001
  2.50000E-005	  1.30294E+001	  1.36500E+001	  1.40856E+001	  3.06278E+001
  2.81250E-005	  4.64597E+000	  2.21978E+000	  2.77140E+000	  1.07990E+001
  3.12500E-005	  7.10901E-001	  1.73681E+000	  2.45711E+000	  5.88272E+000
  3.43750E-005	  1.05308E+000	  1.09286E+000	  1.67141E+000	  4.57173E+000
  3.75000E-005	  1.22417E+000	  7.70878E-001	  1.51426E+000	  3.75236E+000
  4.06250E-005	  5.39811E-001	  1.09286E+000	  1.67141E+000	  4.57173E+000
  4.37500E-005	  8.81992E-001	  4.48900E-001	  4.14274E-001	  2.93299E+000
  4.68750E-005	  1.05308E+000	  1.26922E-001	  7.28557E-001	  2.60524E+000
  5.00000E-005	  1.39526E+000	  1.25384E+000	  5.71415E-001	  2.60524E+000
  5.62500E-005	  7.96446E-001	  6.09889E-001	  6.49986E-001	  2.68717E+000
  6.25000E-005	  5.39811E-001	  1.33434E+000	  5.71415E-001	  1.45812E+000
  6.87500E-005	  7.10901E-001	  8.51372E-001	  1.78561E-001	  8.02618E-001
  7.50000E-005	 -5.90043E-002	  1.25384E+000	  4.92844E-001	  1.78586E+000
  8.12500E-005	  1.22417E+000	  1.09286E+000	  4.14274E-001	  1.29424E+000
  8.75000E-005	  1.97631E-001	  6.90383E-001	  4.14274E-001	  3.92932E-001
  9.37500E-005	  4.54266E-001	  1.26922E-001	  1.19998E+000	  7.20681E-001
  1.00000E-004	  9.24764E-001	  4.89147E-001	  1.08212E+000	  7.61649E-001
  1.12500E-004	  5.39811E-001	  4.08653E-001	  6.89271E-001	  5.15838E-001
  1.25000E-004	  4.11493E-001	  6.50136E-001	  2.17846E-001	  5.97775E-001
  1.37500E-004	  5.39811E-001	  1.09286E+000	  8.46412E-001	  2.70026E-001
  1.50000E-004	  1.97631E-001	  4.89147E-001	  9.64269E-001	  9.66492E-001
  1.62500E-004	  3.68721E-001	  5.29394E-001	  5.71415E-001	  8.02618E-001
  1.75000E-004	  5.39811E-001	  1.67169E-001	  6.89271E-001	  1.88089E-001
  1.87500E-004	  4.11493E-001	  6.50136E-001	  9.24983E-001	  1.88089E-001
  2.00000E-004	  3.68721E-001	  2.47664E-001	  6.69628E-001	  3.92932E-001
  2.25000E-004	  5.82583E-001	  3.48282E-001	  4.14273E-001	  5.15837E-001
  2.50000E-004	  3.47334E-001	  5.09270E-001	  5.32129E-001	  7.20680E-001
  2.75000E-004	  4.54266E-001	  4.28776E-001	  4.33916E-001	  1.04843E+000
  3.00000E-004	  7.53673E-001	  8.71495E-001	  2.17846E-001	  5.36322E-001
  3.25000E-004	  5.18424E-001	  2.87911E-001	  4.92844E-001	  5.15837E-001
  3.50000E-004	  5.18424E-001	  3.88529E-001	  4.14273E-001	  5.77290E-001
  3.75000E-004	  3.90107E-001	  4.28776E-001	  3.16060E-001	  7.00196E-001
  4.00000E-004	  4.22186E-001	  5.99826E-001	  4.04451E-001	  4.85110E-001
  4.50000E-004	  5.29117E-001	  4.48899E-001	  3.16059E-001	  4.44142E-001
  5.00000E-004	  4.43572E-001	  4.48899E-001	  5.51736E-001	  2.59783E-001
  5.50000E-004	  5.18424E-001	  4.69023E-001	  3.55314E-001	  4.95353E-001
  6.00000E-004	  4.32879E-001	  2.97972E-001	  4.82988E-001	  2.08573E-001
  6.50000E-004	  3.25948E-001	  5.99826E-001	  5.81199E-001	  5.67048E-001
  7.00000E-004	  2.61789E-001	  4.89146E-001	  5.71378E-001	  5.46563E-001
  7.50000E-004	  4.43572E-001	  5.69641E-001	  3.65135E-001	  5.67048E-001
  8.00000E-004	  3.95452E-001	  6.24979E-001	  4.83021E-001	  6.38741E-001
  9.00000E-004	  5.29116E-001	  3.53311E-001	  6.05787E-001	  5.77288E-001
  1.00000E-003	  4.32878E-001	  5.24361E-001	  4.78110E-001	  4.54383E-001
  1.10000E-003	  4.32878E-001	  4.74052E-001	  2.96415E-001	  3.87809E-001
  1.20000E-003	  2.77827E-001	  5.29392E-001	  4.14271E-001	  4.95351E-001
  1.30000E-003	  4.59610E-001	  3.63373E-001	  4.82987E-001	  3.77567E-001
  1.40000E-003	  4.64957E-001	  5.29392E-001	  4.19150E-001	  4.59504E-001
  1.50000E-003	  4.43571E-001	  4.48898E-001	  3.25849E-001	  5.67046E-001
  1.60000E-003	  3.66043E-001	  4.31287E-001	  4.01992E-001	  4.26214E-001
  1.80000E-003	  4.64954E-001	  4.86627E-001	  4.75652E-001	  4.39017E-001
  2.00000E-003	  4.83667E-001	  4.74050E-001	  4.16724E-001	  4.64622E-001
  2.20000E-003	  4.70301E-001	  4.79081E-001	  4.75652E-001	  5.10712E-001
  2.40000E-003	  4.72974E-001	  3.86009E-001	  4.58465E-001	  3.85246E-001
  2.60000E-003	  4.24855E-001	  4.84112E-001	  4.51099E-001	  4.03170E-001
  2.80000E-003	  4.00796E-001	  5.36936E-001	  4.16724E-001	  4.21093E-001
  3.00000E-003	  5.45153E-001	  3.96071E-001	  3.45489E-001	  5.08151E-001
  3.20000E-003	  3.76732E-001	  4.38862E-001	  4.53549E-001	  4.59496E-001
  3.60000E-003	  2.73811E-001	  5.47028E-001	  4.64598E-001	  4.13407E-001
  4.00000E-003	  4.46237E-001	  4.43893E-001	  3.35694E-001	  4.33891E-001
  4.40000E-003	  3.98118E-001	  3.75975E-001	  4.41273E-001	  3.83961E-001
  4.80000E-003	  4.42227E-001	  3.75975E-001	  3.52881E-001	  4.73579E-001
  5.20000E-003	  4.04801E-001	  5.18100E-001	  3.77434E-001	  3.57076E-001
  5.60000E-003	  3.68712E-001	  3.08056E-001	  3.74979E-001	  3.98044E-001
  6.00000E-003	  3.25940E-001	  3.35727E-001	  3.47970E-001	  4.17248E-001
  6.40000E-003	  3.82737E-001	  3.39522E-001	  3.65793E-001	  3.46216E-001
  7.20000E-003	  3.66029E-001	  3.79141E-001	  3.51061E-001	  3.74382E-001
  8.00000E-003	  3.47985E-001	  3.47068E-001	  3.73159E-001	  3.72461E-001
  8.80000E-003	  3.03876E-001	  3.66564E-001	  3.22825E-001	  3.58378E-001
  9.60000E-003	  3.04545E-001	  3.27542E-001	  3.84822E-001	  3.37894E-001
  1.04000E-002	  3.41302E-001	  3.20625E-001	  3.35715E-001	  3.35973E-001
  1.12000E-002	  2.76476E-001	  3.19996E-001	  3.30191E-001	  3.04606E-001
  1.20000E-002	  2.97862E-001	  3.12449E-001	  3.57200E-001	  3.16769E-001
  1.28000E-002	  2.94199E-001	  2.91514E-001	  2.97055E-001	  3.47540E-001
  1.44000E-002	  3.41013E-001	  3.32709E-001	  3.07154E-001	  3.04970E-001
  1.60000E-002	  2.70504E-001	  2.99376E-001	  3.16975E-001	  2.64930E-001
  1.76000E-002	  2.73846E-001	  2.50633E-001	  2.86898E-001	  2.84455E-001
  1.92000E-002	  2.76185E-001	  2.75162E-001	  2.49761E-001	  2.76133E-001
  2.08000E-002	  2.55801E-001	  2.32080E-001	  2.41474E-001	  2.84134E-001
  2.24000E-002	  2.75851E-001	  2.41485E-001	  2.70324E-001	  2.62049E-001
  2.40000E-002	  2.51791E-001	  2.13813E-001	  2.63265E-001	  2.48286E-001
  2.56000E-002	  2.25249E-001	  1.84256E-001	  2.43952E-001	  2.47787E-001
  2.88000E-002	  1.87794E-001	  2.47470E-001	  2.52239E-001	  2.22498E-001
  3.20000E-002	  1.81612E-001	  2.01997E-001	  2.34898E-001	  2.57681E-001
  3.52000E-002	  1.85956E-001	  2.04643E-001	  2.22314E-001	  2.18788E-001
  3.84000E-002	  1.69415E-001	  2.11977E-001	  2.01444E-001	  2.05344E-001
  4.16000E-002	  1.44519E-001	  1.70152E-001	  1.76403E-001	  1.73174E-001
  4.48000E-002	  1.43684E-001	  1.68423E-001	  1.58602E-001	  1.68852E-001
  4.80000E-002	  1.63232E-001	  1.74056E-001	  1.77630E-001	  1.90619E-001
  5.12000E-002	  1.60523E-001	  1.84195E-001	  1.63349E-001	  1.74262E-001
  5.76000E-002	  1.27774E-001	  1.60108E-001	  1.58285E-001	  1.64631E-001
  6.40000E-002	  1.33789E-001	  1.24360E-001	  1.44934E-001	  1.50998E-001
  7.04000E-002	  9.48568E-002	  1.41658E-001	  1.05164E-001	  1.42969E-001
  7.68000E-002	  9.92585E-002	  1.16786E-001	  1.15675E-001	  9.90874E-002
  8.32000E-002	  9.26326E-002	  1.11257E-001	  1.10611E-001	  9.33800E-002
  8.96000E-002	  9.78383E-002	  8.96384E-002	  9.62637E-002	  9.82616E-002
  9.60000E-002	  8.50562E-002	  8.63365E-002	  1.12428E-001	  8.35918E-002
  1.02400E-001	  6.16016E-002	  7.47044E-002	  9.33675E-002	  8.95251E-002
  1.15200E-001	  7.39844E-002	  7.73776E-002	  6.57709E-002	  7.38376E-002
  1.28000E-001	  7.41515E-002	  6.38789E-002	  7.15638E-002	  7.08060E-002
  1.40800E-001	  6.83026E-002	  7.40216E-002	  5.12312E-002	  6.53383E-002
  1.53600E-001	  5.27862E-002	  6.43900E-002	  4.86225E-002	  4.66088E-002
  1.66400E-001	  4.68119E-002	  4.39233E-002	  5.19601E-002	  5.60844E-002
  1.79200E-001	  3.27914E-002	  2.97473E-002	  5.15381E-002	  3.80678E-002
  1.92000E-001	  4.22332E-002	  2.82764E-002	  3.99524E-002	  4.54152E-002
  2.04800E-001	  1.95754E-002	  2.62675E-002	  3.72760E-002	  3.74140E-002
  2.30400E-001	  1.99655E-002	  3.10248E-002	  1.28530E-002	  4.24690E-002
  2.56000E-001	  2.04533E-002	  2.64837E-002	  1.39274E-002	  2.46011E-002
  2.81600E-001	  1.91999E-002	  1.60844E-002	  1.27340E-002	  1.73435E-002
  3.07200E-001	  1.84930E-002	  1.41345E-002	  1.87005E-002	  8.75721E-003
  3.32800E-001	  1.72396E-002	  6.33027E-003	  1.12453E-002	  1.88721E-002
  3.58400E-001	  2.16475E-002	  8.67684E-003	  8.71279E-003	  1.15028E-002
  3.84000E-001	  1.51714E-002	  3.66735E-003	  7.48490E-003	  9.57430E-003
  4.09600E-001	  1.26710E-002	  3.96211E-003	  1.08305E-002	  9.90247E-003
  4.60800E-001	  2.28483E-003	 -7.01291E-003	  6.97933E-003	  1.43571E-002
  5.12000E-001	  5.90346E-003	  3.29358E-003	  8.04811E-003	  7.30977E-003
  5.63200E-001	  1.15777E-002	  1.01215E-003	  3.82163E-004	  9.76882E-003
  6.14400E-001	  9.71666E-003	 -3.01811E-003	 -2.27423E-003	  1.19344E-003
  6.65600E-001	 -6.85757E-004	  1.07807E-003	 -6.25108E-003	 -1.43260E-003
  7.16800E-001	 -1.03619E-002	 -1.93094E-004	 -6.19612E-003	  6.36191E-003
  7.68000E-001	  5.06880E-003	  8.07522E-003	 -4.36960E-003	  5.21076E-003
  8.19200E-001	 -5.12154E-003	 -4.98053E-005	 -1.77570E-003	  7.27422E-003
  9.21600E-001	  5.26858E-003	  2.78701E-004	  1.36607E-003	 -1.94291E-003
  1.02400E+000	 -2.81433E-003	 -1.08488E-003	  8.32407E-005	 -3.01985E-004
  1.12640E+000	  8.55657E-003	 -7.91318E-004	 -2.96389E-003	  1.45229E-003
  1.22880E+000	  1.70647E-003	  5.93903E-003	 -9.85089E-003	 -7.37465E-004
  1.33120E+000	  1.75055E-003	  1.21215E-003	 -3.15065E-004	 -1.99398E-003
  1.43360E+000	  7.56860E-003	 -4.94802E-003	  3.68137E-003	 -2.41779E-003
  1.53600E+000	  3.57854E-003	 -3.70662E-003	  4.91888E-003	 -1.70010E-003
  1.63840E+000	 -1.14332E-003	 -6.01055E-003	  1.94372E-003	  5.92071E-004
  1.84320E+000	 -5.97160E-003	 -2.41438E-003	  6.91558E-003	 -2.60344E-003
  2.04800E+000	 -3.00670E-003	  2.30024E-003	  2.90454E-003	  8.27244E-004
  2.25280E+000	  3.13850E-003	  2.97384E-003	 -4.40374E-004	  1.39577E-003
  2.45760E+000	  3.61800E-003	  1.85186E-003	  2.90475E-003	 -3.42700E-003
  2.66240E+000	  1.27135E-002	  1.55162E-003	  4.57163E-003	 -1.10397E-002
  2.86720E+000	 -1.71857E-003	  6.72463E-003	  5.08596E-004	 -8.31696E-003
  3.07200E+000	 -2.87358E-003	  2.08667E-003	 -3.13267E-003	  3.09650E-003
  3.27680E+000	 -9.41749E-003	  4.66346E-003	 -2.73826E-003	  1.68283E-003
  3.68640E+000	 -2.30005E-003	 -2.16039E-003	 -2.03577E-003	  6.26532E-003
  4.09600E+000	 -8.89206E-003	  1.51267E-003	 -1.50180E-003	  2.39061E-003
  4.50560E+000	 -1.23007E-003	  2.56422E-003	 -8.31093E-004	  6.73737E-003
  4.91520E+000	  4.70193E-005	 -3.13199E-004	  2.26938E-003	  1.26243E-003
  5.32480E+000	 -5.57849E-003	 -1.97155E-003	 -6.33526E-003	  1.01719E-003
  5.73440E+000	 -7.54642E-004	 -3.41179E-005	 -1.72592E-003	 -1.47798E-003
  6.14400E+000	  6.01385E-004	 -2.25958E-003	 -2.45818E-003	 -1.90760E-003
  6.55360E+000	  4.37736E-004	 -1.79516E-004	  8.32450E-004	  1.05458E-003
  7.37280E+000	  4.05654E-003	 -3.65275E-004	  6.81541E-004	 -9.04459E-004
  8.19200E+000	 -1.61585E-003	  2.16701E-003	 -7.34753E-004	 -1.00292E-003
  9.01120E+000	  3.00109E-003	  1.90730E-003	  2.80525E-003	 -4.07333E-003
  9.83040E+000	  4.77091E-004	 -2.79370E-003	 -6.25831E-004	  3.40624E-003
  1.06496E+001	 -7.14831E-004	  2.95621E-003	  2.15300E-003	  2.15168E-003
  1.14688E+001	  1.89866E-004	 -1.10185E-003	  1.18943E-003	  6.46251E-004
  1.22880E+001	  2.84170E-003	  5.69930E-004	  1.12362E-003	  5.22313E-003
  1.31072E+001	 -1.07576E-003	 -6.56851E-004	  3.25978E-003	  1.05789E-003
  1.47456E+001	 -7.98111E-004	  4.54178E-004	  1.70512E-004	 -8.46379E-004
  1.63840E+001	  1.31527E-003	 -2.78397E-003	  6.95793E-004	  1.73742E-003
  1.80224E+001	  5.97056E-004	 -2.68573E-003	 -1.18747E-003	  1.33406E-003
  1.96608E+001	  3.05709E-003	 -1.22128E-003	 -2.65399E-003	 -5.59250E-004
  2.12992E+001	  2.04043E-003	 -3.45654E-003	 -2.77163E-003	 -2.66995E-003
  2.29376E+001	  6.66982E-004	  1.74924E-003	 -4.31863E-004	 -2.01529E-003
  2.45760E+001	 -1.22215E-003	 -2.45955E-003	  2.85139E-004	 -2.90231E-003
  2.62144E+001	  2.03977E-003	  1.03374E-003	  2.95786E-003	 -5.70721E-004
  2.94912E+001	  1.91330E-003	  7.09249E-004	 -1.91330E-003	  4.03885E-004
  3.27680E+001	 -3.87061E-004	  9.89200E-004	  1.01088E-003	  1.20315E-003
  3.60448E+001	  1.62941E-004	  1.27301E-003	 -6.95078E-004	 -1.85470E-003
  3.93216E+001	 -6.87331E-004	 -1.62006E-003	  8.10872E-004	 -7.32492E-004
  4.25984E+001	  1.42617E-003	  7.18637E-005	 -1.50721E-003	 -3.88049E-004
  4.58752E+001	  7.33776E-004	  2.45018E-003	  2.50605E-003	  2.69031E-003
  4.91520E+001	 -3.55156E-003	 -2.61544E-004	 -1.15400E-003	  4.52982E-004
  5.24288E+001	  3.67705E-004	 -1.12768E-003	 -1.52576E-003	 -1.01590E-003
  5.89824E+001	  5.33257E-004	  6.98431E-004	  1.76561E-003	 -1.28783E-003
  6.55360E+001	 -1.29624E-003	 -7.94103E-005	 -8.68820E-004	 -1.95022E-003
  7.20896E+001	  7.56036E-004	 -2.65600E-004	 -8.89198E-004	  9.77414E-005
  7.86432E+001	  2.06565E-004	 -1.17896E-003	 -1.58664E-003	 -8.06366E-004
  8.51968E+001	  3.79993E-004	 -1.05374E-003	 -1.46422E-003	 -2.29315E-004
  9.17504E+001	 -1.24359E-003	  8.39958E-004	  1.07846E-003	  6.53125E-004
  9.83040E+001	  1.99081E-003	  2.35054E-005	 -3.34639E-003	  7.07428E-004
  1.04858E+002	 -2.16818E-004	 -1.96334E-005	  8.01351E-005	 -1.17257E-003
  1.17965E+002	  6.11873E-004	  5.28622E-004	  3.81622E-006	 -5.31049E-004
  1.31072E+002	  7.74213E-004	  5.43060E-004	  1.43402E-003	 -2.70001E-004
  1.44179E+002	 -2.28243E-004	 -1.87655E-003	  3.47056E-004	 -1.06171E-004
  1.57286E+002	  7.08499E-004	  1.34206E-003	  8.93412E-004	  2.26565E-004
  1.70394E+002	  9.23711E-004	 -1.70783E-004	  6.11930E-004	  1.73499E-003
  1.83501E+002	  5.96053E-006	 -4.45195E-004	  5.25618E-006	 -7.95411E-004
  1.96608E+002	  7.62736E-004	 -7.44245E-004	 -1.00647E-003	 -2.05622E-004
  2.09715E+002	  2.41189E-004	  5.22861E-004	 -1.06448E-003	 -3.46366E-004
  2.35930E+002	 -2.19657E-004	 -1.17798E-004	 -8.05930E-004	  3.42524E-004
  2.62144E+002	 -6.30497E-004	  3.83026E-004	 -6.56235E-004	  2.93948E-004
  2.88358E+002	  3.33605E-004	 -3.26990E-004	 -4.40603E-004	  4.97381E-004
  3.14573E+002	  1.46338E-003	 -2.85579E-004	 -7.41347E-004	  3.26320E-004
  3.40787E+002	  1.84040E-003	 -2.09317E-003	 -7.54455E-004	 -1.47540E-003
  3.67002E+002	  3.34120E-004	 -2.81476E-004	  2.98283E-005	 -6.15876E-004
  3.93216E+002	 -1.12874E-003	 -7.56437E-004	 -3.13323E-004	  7.54028E-004

"Count Rate"
       0.01311	      48.06519	      46.23413	      46.92078	      48.44666
       0.02621	      40.13062	      48.52295	      50.12512	      43.86902
       0.03932	      48.29407	      46.46301	      44.70825	      44.55566
       0.05243	      47.60742	      45.77637	      44.47937	      38.07068
       0.06554	      44.02161	      52.71912	      40.28320	      46.76819
       0.07864	      40.96985	      41.50391	      50.04883	      43.79272
       0.09175	      41.12244	      44.63196	      47.37854	      46.31042
       0.10486	      44.25049	      45.39490	      45.16602	      42.03796
       0.11796	      48.14148	      45.24231	      40.81726	      44.02161
       0.13107	      46.92078	      52.10876	      54.85535	      49.36218
       0.14418	      47.14966	      47.30225	      45.92896	      35.09521
       0.15729	      46.38672	      46.92078	      46.23413	      47.37854
       0.17039	      45.08972	      44.25049	      44.32678	      49.51477
       0.18350	      47.45483	      45.85266	      43.94531	      50.04883
       0.19661	      47.14966	      41.58020	      44.55566	      46.08154
       0.20972	      45.08972	      48.67554	      40.89355	      46.53931
       0.22282	      44.63196	      42.34314	      42.64832	      41.58020
       0.23593	      44.70825	      51.57471	      45.47119	      42.26685
       0.24904	      46.15784	      37.53662	      41.58020	      40.51208
       0.26214	      43.02979	      41.65649	      51.95618	      37.46033
       0.27525	      46.31042	      49.43848	      46.46301	      42.49573
       0.28836	      42.64832	      43.02979	      45.31860	      44.25049
       0.30147	      49.05701	      46.38672	      48.44666	      43.48755
       0.31457	      43.64014	      40.74097	      43.25867	      39.67285
       0.32768	      45.85266	      38.83362	      51.87988	      47.98889
       0.34079	      46.53931	      49.28589	      43.48755	      45.08972
       0.35389	      41.27502	      41.80908	      47.22595	      52.71912
       0.36700	      47.91260	      43.64014	      47.45483	      50.88806
       0.38011	      42.80090	      44.78455	      46.38672	      45.16602
       0.39322	      42.26685	      57.44934	      45.31860	      47.45483
       0.40632	      39.90173	      46.08154	      42.03796	      44.47937
       0.41943	      38.83362	      42.34314	      47.53113	      43.94531
       0.43254	      40.51208	      43.25867	      51.04065	      42.49573
       0.44564	      44.70825	      41.50391	      47.30225	      50.27771
       0.45875	      46.38672	      41.88538	      45.47119	      48.82813
       0.47186	      48.59924	      39.97803	      47.53113	      41.88538
       0.48497	      45.92896	      39.67285	      50.96436	      40.51208
       0.49807	      45.39490	      45.31860	      52.64282	      51.65100
       0.51118	      41.50391	      45.39490	      49.59106	      45.24231
       0.52429	      44.02161	      45.08972	      45.39490	      40.81726
       0.53740	      40.81726	      42.57202	      47.37854	      41.27502
       0.55050	      38.75732	      46.23413	      44.09790	      42.03796
       0.56361	      43.48755	      41.88538	      40.81726	      42.19055
       0.57672	      47.30225	      43.94531	      44.78455	      47.83630
       0.58982	      39.67285	      47.60742	      44.63196	      49.81995
       0.60293	      50.73547	      46.69189	      46.76819	      43.71643
       0.61604	      45.31860	      45.08972	      43.64014	      41.73279
       0.62915	      41.19873	      42.49573	      45.70007	      46.69189
       0.64225	      49.89624	      50.20142	      48.52295	      41.27502
       0.65536	      43.71643	      45.01343	      44.32678	      45.92896
       0.66847	      38.83362	      43.18237	      50.81177	      48.75183
       0.68157	      46.99707	      46.31042	      38.83362	      42.34314
       0.69468	      43.94531	      39.82544	      39.21509	      42.19055
       0.70779	      39.21509	      50.50659	      45.31860	      41.04614
       0.72090	      34.25598	      39.52026	      44.93713	      42.03796
       0.73400	      41.58020	      43.71643	      42.11426	      46.46301
       0.74711	      42.72461	      42.57202	      43.56384	      43.48755
       0.76022	      36.92627	      47.37854	      46.38672	      47.68372
       0.77332	      41.58020	      48.90442	      46.53931	      45.01343
       0.78643	      38.60474	      41.42761	      48.82813	      45.16602
       0.79954	      49.13330	      48.44666	      43.94531	      47.45483
       0.81265	      43.86902	      45.62378	      45.16602	      42.34314
       0.82575	      44.09790	      47.91260	      42.03796	      43.64014
       0.83886	      42.11426	      47.07336	      40.05432	      42.03796
       0.85197	      40.66467	      55.31311	      43.71643	      47.07336
       0.86508	      40.89355	      38.68103	      45.16602	      44.86084
       0.87818	      40.35950	      40.28320	      41.88538	      49.51477
       0.89129	      42.72461	      50.50659	      52.56653	      43.18237
       0.90440	      47.68372	      45.77637	      44.70825	      41.73279
       0.91750	      44.17419	      44.63196	      43.71643	      47.14966
       0.93061	      44.55566	      45.70007	      53.78723	      47.91260

Monitor Diode	      1.00
