ALV-7004/USB-FAST
Date :	"11/11/2025"
Time :	"3:55:33 PM"
Samplename : 	""
SampMemo(0) : 	""
SampMemo(1) : 	""
SampMemo(2) : 	""
SampMemo(3) : 	""
SampMemo(4) : 	""
SampMemo(5) : 	""
SampMemo(6) : 	""
SampMemo(7) : 	""
SampMemo(8) : 	""
SampMemo(9) : 	""
Temperature [K] :	     298.16000
Viscosity [cp]  :	       0.89000
Refractive Index:	       1.33200
Wavelength [nm] :	       0.00000
Angle [°]       :	       0.00000
Duration [s]    :	         1
FloatDur [ms]   :	          944
Stop TP [ms]   :	     64044
Runs            :	         1
Mode            :	"A-CH0+1  A-CH2+3 "
MeanCR0 [kHz]   :	      53.76286
MeanCR1 [kHz]   :	      52.60468
MeanCR2 [kHz]   :	      53.50961
MeanCR3 [kHz]   :	      53.98856

"Correlation"
  3.12500E-006	 -1.00000E+000	 -1.00000E+000	 -1.00000E+000	 -1.00000E+000
  6.25000E-006	 -1.00000E+000	 -1.00000E+000	 -1.00000E+000	 -1.00000E+000
  9.37500E-006	 -1.00000E+000	 -1.00000E+000	 -1.00000E+000	 -1.00000E+000
  1.25000E-005	 -1.00000E+000	 -1.00000E+000	 -1.00000E+000	 -1.00000E+000
  1.56250E-005	 -1.00000E+000	 -1.00000E+000	 -1.00000E+000	 -1.00000E+000
  1.87500E-005	 -1.00000E+000	 -1.00000E+000	 -1.00000E+000	 -1.00000E+000
  2.18750E-005	 -1.00000E+000	 -1.97230E-002	  6.57952E-001	 -6.51000E-001
  2.50000E-005	  1.16697E+001	  1.46844E+001	  1.25005E+001	  2.36627E+001
  2.81250E-005	  3.57517E+000	  3.04364E+000	  1.60535E+000	  7.25966E+000
  3.12500E-005	  1.69818E+000	  1.20562E+000	  1.36850E+000	  5.51466E+000
  3.43750E-005	  1.81549E+000	  1.69576E+000	  1.72378E+000	  3.18800E+000
  3.75000E-005	  1.34624E+000	  1.08309E+000	  8.94803E-001	  2.83900E+000
  4.06250E-005	  8.76994E-001	  9.60554E-001	  8.94803E-001	  2.72267E+000
  4.37500E-005	 -4.13440E-001	  2.25346E-001	  4.21102E-001	  2.60633E+000
  4.68750E-005	  1.22893E+000	  3.47881E-001	  1.36850E+000	  2.14100E+000
  5.00000E-005	  1.17027E+000	  8.38019E-001	  8.94803E-001	  2.25733E+000
  5.62500E-005	  5.25057E-001	  1.64079E-001	  7.17165E-001	  1.61750E+000
  6.25000E-005	  1.05296E+000	  7.76752E-001	  1.25039E-001	  1.50117E+000
  6.87500E-005	  9.94306E-001	  4.09148E-001	  5.98740E-001	  1.44300E+000
  7.50000E-005	  9.94306E-001	  7.15485E-001	  6.57952E-001	  1.61750E+000
  8.12500E-005	  1.05296E+000	  2.86614E-001	  4.21102E-001	  1.03583E+000
  8.75000E-005	  3.49089E-001	  6.54217E-001	  5.39527E-001	  8.61332E-001
  9.37500E-005	 -2.84720E-003	  8.38019E-001	  6.58265E-002	  8.03166E-001
  1.00000E-004	  2.90433E-001	  5.62316E-001	  4.50708E-001	  1.03583E+000
  1.12500E-004	  5.83713E-001	  5.92950E-001	  8.05984E-001	  7.74082E-001
  1.25000E-004	  8.76993E-001	  5.01049E-001	  2.13858E-001	  4.25083E-001
  1.37500E-004	  3.78417E-001	  4.39782E-001	  5.98740E-001	  5.99582E-001
  1.50000E-004	  7.59681E-001	  5.01049E-001	  7.76377E-001	  8.61332E-001
  1.62500E-004	  4.07745E-001	  5.62316E-001	  6.57952E-001	  5.12332E-001
  1.75000E-004	  7.30353E-001	  9.29920E-001	  3.02677E-001	  6.28666E-001
  1.87500E-004	  1.08229E+000	  8.99286E-001	  3.32283E-001	  5.99582E-001
  2.00000E-004	  1.06763E+000	  7.30801E-001	  4.65511E-001	  4.97791E-001
  2.25000E-004	  4.81065E-001	  5.16365E-001	  4.21102E-001	  4.10541E-001
  2.50000E-004	  7.15689E-001	  2.71296E-001	  2.73070E-001	  4.25082E-001
  2.75000E-004	  5.98377E-001	  3.17247E-001	  5.98739E-001	  6.86832E-001
  3.00000E-004	  6.27705E-001	  4.85732E-001	  5.69133E-001	  8.17707E-001
  3.25000E-004	  6.86361E-001	  4.55098E-001	  3.32283E-001	  4.54166E-001
  3.50000E-004	  6.13041E-001	  5.16365E-001	  5.24724E-001	  6.28665E-001
  3.75000E-004	  5.98377E-001	  3.78514E-001	  4.21102E-001	  7.88624E-001
  4.00000E-004	  5.83712E-001	  4.78073E-001	  4.58109E-001	  4.68707E-001
  4.50000E-004	  3.93080E-001	  4.32122E-001	  5.02518E-001	  4.54165E-001
  5.00000E-004	  5.61716E-001	  3.24905E-001	  4.35904E-001	  3.30561E-001
  5.50000E-004	  4.66400E-001	  6.84850E-001	  3.91495E-001	  6.35936E-001
  6.00000E-004	  5.69048E-001	  5.08706E-001	  5.24723E-001	  4.46894E-001
  6.50000E-004	  6.20372E-001	  5.08706E-001	  6.13542E-001	  4.75977E-001
  7.00000E-004	  3.49088E-001	  5.92949E-001	  4.06298E-001	  3.88728E-001
  7.50000E-004	  3.19760E-001	  7.15483E-001	  5.83935E-001	  4.68707E-001
  8.00000E-004	  5.28721E-001	  4.93388E-001	  5.32123E-001	  4.06903E-001
  9.00000E-004	  5.36053E-001	  5.39339E-001	  4.61808E-001	  6.03216E-001
  1.00000E-003	  6.05707E-001	  4.62755E-001	  4.28501E-001	  4.43257E-001
  1.10000E-003	  3.85747E-001	  4.70413E-001	  4.91415E-001	  6.54111E-001
  1.20000E-003	  6.02041E-001	  4.74242E-001	  4.72911E-001	  5.30507E-001
  1.30000E-003	  4.37071E-001	  4.70413E-001	  4.39604E-001	  5.34143E-001
  1.40000E-003	  5.21389E-001	  3.97658E-001	  4.58108E-001	  5.92309E-001
  1.50000E-003	  4.70065E-001	  4.85730E-001	  3.50785E-001	  5.37778E-001
  1.60000E-003	  4.97557E-001	  4.55094E-001	  4.45152E-001	  4.90545E-001
  1.80000E-003	  4.62730E-001	  5.39336E-001	  4.56255E-001	  4.65096E-001
  2.00000E-003	  5.32384E-001	  4.66581E-001	  5.22869E-001	  4.34195E-001
  2.20000E-003	  5.21386E-001	  4.30204E-001	  4.82160E-001	  4.79638E-001
  2.40000E-003	  6.14869E-001	  3.99571E-001	  4.98814E-001	  5.12357E-001
  2.60000E-003	  4.92058E-001	  5.45080E-001	  4.00743E-001	  5.43259E-001
  2.80000E-003	  5.21386E-001	  4.43606E-001	  4.80310E-001	  5.79614E-001
  3.00000E-003	  4.62730E-001	  4.64667E-001	  4.59955E-001	  5.45077E-001
  3.20000E-003	  5.05860E-001	  4.97210E-001	  4.61801E-001	  5.47828E-001
  3.60000E-003	  4.60979E-001	  3.67018E-001	  4.74754E-001	  4.16012E-001
  4.00000E-003	  4.76560E-001	  4.04352E-001	  4.01663E-001	  4.45096E-001
  4.40000E-003	  4.91225E-001	  3.97651E-001	  4.34970E-001	  4.32372E-001
  4.80000E-003	  4.89392E-001	  4.52217E-001	  4.16467E-001	  4.75089E-001
  5.20000E-003	  4.61895E-001	  4.37858E-001	  4.54399E-001	  5.28712E-001
  5.60000E-003	  4.47231E-001	  4.76149E-001	  4.88631E-001	  4.36916E-001
  6.00000E-003	  4.67395E-001	  4.74235E-001	  4.81230E-001	  5.06899E-001
  6.40000E-003	  4.70192E-001	  4.63695E-001	  4.63208E-001	  4.72381E-001
  7.20000E-003	  4.71567E-001	  4.86670E-001	  4.75235E-001	  4.83742E-001
  8.00000E-003	  5.01814E-001	  4.39762E-001	  4.54910E-001	  4.90559E-001
  8.80000E-003	  5.03189E-001	  4.21095E-001	  4.47971E-001	  5.07827E-001
  9.60000E-003	  5.00380E-001	  3.91898E-001	  4.02172E-001	  4.91468E-001
  1.04000E-002	  4.88007E-001	  4.05779E-001	  4.15588E-001	  5.03253E-001
  1.12000E-002	  4.65093E-001	  4.18223E-001	  4.22990E-001	  5.03708E-001
  1.20000E-002	  5.23294E-001	  4.88106E-001	  4.51209E-001	  5.04162E-001
  1.28000E-002	  4.70631E-001	  4.47640E-001	  4.73019E-001	  4.80995E-001
  1.44000E-002	  4.81859E-001	  4.78752E-001	  4.80421E-001	  4.69180E-001
  1.60000E-002	  4.82546E-001	  4.42375E-001	  4.38784E-001	  4.80314E-001
  1.76000E-002	  4.68568E-001	  4.48358E-001	  4.47112E-001	  5.09625E-001
  1.92000E-002	  4.43592E-001	  4.18204E-001	  4.44770E-001	  4.49639E-001
  2.08000E-002	  5.06148E-001	  4.44051E-001	  4.25571E-001	  4.82842E-001
  2.24000E-002	  4.69427E-001	  4.29213E-001	  4.57029E-001	  4.88977E-001
  2.40000E-002	  4.63240E-001	  4.23469E-001	  4.48240E-001	  5.01899E-001
  2.56000E-002	  4.69188E-001	  4.38627E-001	  4.38802E-001	  4.91352E-001
  2.88000E-002	  4.70792E-001	  4.32644E-001	  4.55457E-001	  4.94306E-001
  3.20000E-002	  4.49481E-001	  4.28815E-001	  4.42185E-001	  4.81581E-001
  3.52000E-002	  4.77438E-001	  4.28815E-001	  4.50194E-001	  4.87262E-001
  3.84000E-002	  4.81906E-001	  4.59686E-001	  4.22435E-001	  4.69652E-001
  4.16000E-002	  4.68730E-001	  4.31807E-001	  4.56556E-001	  4.73061E-001
  4.48000E-002	  4.77896E-001	  4.14097E-001	  4.41607E-001	  4.79309E-001
  4.80000E-002	  4.67183E-001	  4.32764E-001	  4.37443E-001	  4.90784E-001
  5.12000E-002	  4.75126E-001	  4.33010E-001	  4.48409E-001	  4.85165E-001
  5.76000E-002	  4.82860E-001	  4.18531E-001	  4.27444E-001	  4.63665E-001
  6.40000E-002	  4.70055E-001	  4.22659E-001	  4.26519E-001	  4.57076E-001
  7.04000E-002	  4.75412E-001	  4.38275E-001	  4.31203E-001	  4.70056E-001
  7.68000E-002	  4.65128E-001	  4.12727E-001	  4.15473E-001	  4.58270E-001
  8.32000E-002	  4.59285E-001	  4.07223E-001	  4.50925E-001	  4.52362E-001
  8.96000E-002	  4.66732E-001	  4.29540E-001	  4.31233E-001	  4.62331E-001
  9.60000E-002	  4.45593E-001	  4.15838E-001	  4.16805E-001	  4.60627E-001
  1.02400E-001	  4.56664E-001	  4.12678E-001	  4.23551E-001	  4.49024E-001
  1.15200E-001	  4.57610E-001	  4.13756E-001	  4.24853E-001	  4.39027E-001
  1.28000E-001	  4.52768E-001	  4.09030E-001	  3.99026E-001	  4.56664E-001
  1.40800E-001	  4.48328E-001	  3.97991E-001	  4.10479E-001	  4.49138E-001
  1.53600E-001	  4.35493E-001	  3.84319E-001	  4.08311E-001	  4.40702E-001
  1.66400E-001	  4.37585E-001	  3.84498E-001	  4.12707E-001	  4.45332E-001
  1.79200E-001	  4.25583E-001	  3.73518E-001	  4.12473E-001	  4.40673E-001
  1.92000E-001	  4.26356E-001	  3.82434E-001	  3.99141E-001	  4.36384E-001
  2.04800E-001	  4.27909E-001	  3.79032E-001	  3.90654E-001	  4.25930E-001
  2.30400E-001	  4.13153E-001	  3.84559E-001	  3.87355E-001	  4.22691E-001
  2.56000E-001	  4.15818E-001	  3.69133E-001	  3.80836E-001	  4.11698E-001
  2.81600E-001	  4.10719E-001	  3.55458E-001	  3.72793E-001	  4.01639E-001
  3.07200E-001	  3.87186E-001	  3.44751E-001	  3.55541E-001	  4.04280E-001
  3.32800E-001	  3.79364E-001	  3.33958E-001	  3.49888E-001	  3.89423E-001
  3.58400E-001	  3.70615E-001	  3.29342E-001	  3.38914E-001	  3.78214E-001
  3.84000E-001	  3.63515E-001	  3.16581E-001	  3.26819E-001	  3.65360E-001
  4.09600E-001	  3.50752E-001	  3.13030E-001	  3.14475E-001	  3.60558E-001
  4.60800E-001	  3.39705E-001	  2.96918E-001	  2.97406E-001	  3.43343E-001
  5.12000E-001	  3.15944E-001	  2.85772E-001	  2.85623E-001	  3.27854E-001
  5.63200E-001	  2.98273E-001	  2.58026E-001	  2.68374E-001	  3.08804E-001
  6.14400E-001	  2.86880E-001	  2.43069E-001	  2.58227E-001	  3.01514E-001
  6.65600E-001	  2.63322E-001	  2.23519E-001	  2.39164E-001	  2.81650E-001
  7.16800E-001	  2.49919E-001	  2.15003E-001	  2.17151E-001	  2.57199E-001
  7.68000E-001	  2.33603E-001	  2.03209E-001	  2.18330E-001	  2.48486E-001
  8.19200E-001	  2.20997E-001	  1.93681E-001	  2.05969E-001	  2.34481E-001
  9.21600E-001	  1.98496E-001	  1.67907E-001	  1.82417E-001	  2.11244E-001
  1.02400E+000	  1.75389E-001	  1.58971E-001	  1.62228E-001	  1.92442E-001
  1.12640E+000	  1.56026E-001	  1.41271E-001	  1.47933E-001	  1.66600E-001
  1.22880E+000	  1.42396E-001	  1.27266E-001	  1.33505E-001	  1.47482E-001
  1.33120E+000	  1.25209E-001	  1.16811E-001	  1.20338E-001	  1.33975E-001
  1.43360E+000	  1.07266E-001	  1.10000E-001	  1.03660E-001	  1.15988E-001
  1.53600E+000	  9.76857E-002	  1.00124E-001	  8.85858E-002	  1.09084E-001
  1.63840E+000	  8.61397E-002	  9.17018E-002	  7.66755E-002	  9.90057E-002
  1.84320E+000	  6.95163E-002	  8.13288E-002	  5.14211E-002	  8.56818E-002
  2.04800E+000	  5.89769E-002	  6.21020E-002	  4.39739E-002	  7.28921E-002
  2.25280E+000	  4.64200E-002	  4.47816E-002	  3.92181E-002	  6.40047E-002
  2.45760E+000	  3.61246E-002	  3.68673E-002	  3.71187E-002	  5.07716E-002
  2.66240E+000	  3.06512E-002	  3.65235E-002	  2.74499E-002	  4.50714E-002
  2.86720E+000	  1.98735E-002	  3.45745E-002	  2.78598E-002	  4.02804E-002
  3.07200E+000	  2.11199E-002	  3.00921E-002	  2.09431E-002	  2.91793E-002
  3.27680E+000	  1.42039E-002	  2.72442E-002	  2.07137E-002	  2.24592E-002
  3.68640E+000	  1.20180E-002	  8.92328E-003	  1.37266E-002	  5.80284E-003
  4.09600E+000	  1.15413E-002	 -3.61042E-003	  3.08729E-003	 -2.68059E-003
  4.50560E+000	  2.95638E-003	 -5.74400E-004	 -9.80924E-003	 -7.80075E-003
  4.91520E+000	 -1.06593E-002	  7.07208E-003	 -1.80860E-002	 -1.14721E-002
  5.32480E+000	 -1.33402E-002	  8.58021E-003	 -2.47264E-002	 -1.86601E-002
  5.73440E+000	 -9.11335E-003	  3.82649E-003	 -2.21944E-002	 -1.15224E-002
  6.14400E+000	 -5.48788E-003	  6.44155E-003	 -2.43912E-002	 -1.85773E-003
  6.55360E+000	  5.09092E-003	  1.21985E-003	 -1.44493E-002	 -5.51180E-003
  7.37280E+000	  9.96725E-003	  2.74451E-003	 -1.45100E-002	 -5.24490E-003
  8.19200E+000	  1.01175E-002	  7.51233E-003	 -9.01194E-003	 -5.19096E-003
  9.01120E+000	  1.05192E-002	  1.08903E-002	  1.09215E-002	 -6.36732E-003
  9.83040E+000	  1.39021E-002	  1.91638E-002	  2.46163E-002	 -7.35571E-003
  1.06496E+001	  2.89312E-003	  2.92540E-002	  1.69019E-002	 -2.51627E-003
  1.14688E+001	  8.38406E-003	  3.31038E-002	  3.41697E-003	  8.07364E-003
  1.22880E+001	  2.09599E-003	  3.90888E-002	  8.19491E-003	  5.30898E-003
  1.31072E+001	  8.24432E-003	  2.32248E-002	  9.56589E-003	  4.10829E-003
  1.47456E+001	 -6.15889E-004	  2.15244E-003	  2.66403E-003	  6.63382E-003
  1.63840E+001	 -1.70235E-003	 -9.36656E-003	 -7.02647E-003	 -1.37699E-002
  1.80224E+001	  1.35845E-003	 -2.80975E-002	 -1.44360E-002	 -1.85362E-002
  1.96608E+001	  8.07893E-003	 -2.15418E-002	 -1.37774E-003	  1.03808E-003
  2.12992E+001	 -1.45114E-002	 -1.88701E-002	  1.46130E-002	  1.10397E-002
  2.29376E+001	 -3.07225E-002	 -1.12269E-002	  2.07787E-002	  2.22058E-003
  2.45760E+001	 -1.81387E-002	 -4.27406E-003	  1.18359E-002	 -4.67879E-003
  2.62144E+001	  7.61114E-003	 -9.21425E-004	 -8.35662E-004	 -1.48370E-002
  2.94912E+001	 -1.17554E-002	  9.93062E-004	  6.92941E-003	 -1.86526E-003
  3.27680E+001	 -1.14107E-002	 -6.36984E-003	  7.22607E-003	 -3.98046E-003
  3.60448E+001	 -8.15538E-003	  1.01930E-002	 -4.82460E-003	 -7.49241E-004
  3.93216E+001	 -2.16779E-002	  3.87725E-003	 -9.20484E-003	  6.84181E-003
  4.25984E+001	  1.18140E-002	 -1.28453E-002	 -3.29102E-002	 -1.85285E-003
  4.58752E+001	  1.44774E-002	 -1.61205E-002	 -1.43362E-002	 -2.07001E-003
  4.91520E+001	  8.45756E-004	  1.10468E-003	  8.18143E-003	 -9.03933E-003
  5.24288E+001	  5.83452E-003	 -2.97580E-003	 -1.01007E-002	 -3.20231E-003
  5.89824E+001	  2.87298E-003	 -1.02844E-002	 -1.10258E-003	  3.40126E-003
  6.55360E+001	 -1.13885E-002	 -3.61845E-003	 -1.08969E-002	  9.34153E-003
  7.20896E+001	  5.75753E-003	 -3.20028E-004	 -7.05224E-003	  2.86739E-003
  7.86432E+001	 -2.16973E-003	  2.02155E-004	  4.19128E-004	  2.63670E-003
  8.51968E+001	 -3.22278E-003	  1.83081E-002	 -2.55591E-003	  5.28585E-003
  9.17504E+001	  5.16345E-004	  2.99174E-003	  1.03596E-002	 -1.81390E-004
  9.83040E+001	 -1.50947E-002	 -9.94005E-003	  3.66336E-003	  2.27613E-002
  1.04858E+002	 -1.85580E-002	 -1.77876E-002	  6.34383E-003	  1.37097E-002
  1.17965E+002	 -5.40210E-003	  7.79037E-003	  1.52473E-002	 -3.33443E-003
  1.31072E+002	 -8.08435E-003	 -1.29620E-003	  6.22846E-003	 -4.17320E-003
  1.44179E+002	  4.54665E-003	  1.95038E-003	  3.50427E-003	 -3.83338E-003
  1.57286E+002	  5.30890E-003	  7.32871E-003	 -9.23795E-003	 -1.44481E-003
  1.70394E+002	  2.53983E-003	  7.45278E-003	  3.29186E-003	 -1.65521E-003
  1.83501E+002	  8.36533E-003	  9.23305E-003	 -9.53564E-003	  6.25482E-003
  1.96608E+002	  1.02363E-002	 -3.35716E-003	 -1.11921E-003	  1.69325E-004
  2.09715E+002	  8.99273E-003	  9.51978E-003	 -7.16262E-003	  5.61184E-003
  2.35930E+002	 -5.80708E-003	 -1.60435E-002	 -2.38774E-003	 -4.08052E-003
  2.62144E+002	 -1.85250E-002	  1.56208E-003	  9.78039E-003	  5.59479E-003
  2.88358E+002	 -4.39006E-003	  1.83788E-002	  8.35207E-003	 -5.74255E-003
  3.14573E+002	  8.87547E-004	 -1.33436E-002	 -4.49612E-003	  2.23096E-003
  3.40787E+002	  3.79775E-003	  4.18988E-003	 -1.41502E-002	 -1.61553E-002
  3.67002E+002	  1.70070E-002	 -2.39425E-003	 -1.47846E-002	  2.15237E-003
  3.93216E+002	  9.27996E-003	 -1.18548E-002	  1.76822E-003	  2.43310E-003

"Count Rate"
       0.01311	      36.54480	      52.56653	      54.55017	      46.53931
       0.02621	      88.04321	      30.97534	      64.16321	      25.25330
       0.03932	      64.23950	      37.91809	      51.19324	      46.69189
       0.05243	      49.74365	      44.47937	      49.66736	      62.02698
       0.06554	      53.10059	      45.47119	      59.50928	      38.83362
       0.07864	      49.51477	      94.83337	      48.29407	      51.42212
       0.09175	      30.82275	      54.70276	      45.24231	      97.27478
       0.10486	      59.81445	      46.08154	      39.36768	      41.58020
       0.11796	      62.86621	      34.48486	      35.70557	      31.96716
       0.13107	      47.22595	      40.28320	      39.97803	      51.42212
       0.14418	      64.62097	      32.04346	      50.35400	      39.36768
       0.15729	      69.19861	      39.67285	      80.41382	      56.53381
       0.17039	      44.55566	      31.12793	      39.67285	      43.71643
       0.18350	      42.87720	      61.64551	      70.57190	      48.14148
       0.19661	      32.95898	      37.38403	      39.52026	      53.10059
       0.20972	      61.03516	      47.07336	      49.89624	      71.33484
       0.22282	      66.90979	      45.16602	      41.80908	      48.67554
       0.23593	      42.95349	      61.34033	      43.10608	      58.36487
       0.24904	      33.49304	      70.49561	      36.77368	      49.36218
       0.26214	      57.37305	      49.59106	      60.27222	      73.62366
       0.27525	      39.52026	      44.32678	      50.20142	      61.49292
       0.28836	      52.71912	      40.74097	      66.83350	      34.48486
       0.30147	      74.92065	      56.83899	      60.42480	      57.75452
       0.31457	      70.41931	      57.75452	      47.76001	      71.79260
       0.32768	      62.86621	      59.58557	      30.44128	      66.75720
       0.34079	      74.31030	      28.38135	      52.87170	      60.95886
       0.35389	      57.67822	      82.39746	      70.49561	      45.92896
       0.36700	      44.40308	      40.05432	      34.56116	      55.54199
       0.38011	      53.71094	      46.53931	      58.89893	      42.11426
       0.39322	      55.99976	      52.64282	      45.47119	      73.54736
       0.40632	      48.75183	      30.28870	      61.72180	      70.26672
       0.41943	      49.20959	      50.58289	      64.77356	      85.90698
       0.43254	      66.37573	      47.68372	      58.89893	      49.05701
       0.44564	      42.03796	      57.98340	      81.32935	      50.81177
       0.45875	      53.78723	      49.59106	      59.35669	      57.14417
       0.47186	      70.64819	      46.38672	      63.70544	      72.86072
       0.48497	      51.49841	      45.54749	      51.42212	      40.28320
       0.49807	      45.01343	      64.62097	      43.94531	      81.86340
       0.51118	      48.90442	     102.61536	      41.19873	      67.90161
       0.52429	      65.84167	      39.36768	      62.56104	      50.96436
       0.53740	      56.91528	      45.24231	      52.71912	      38.60474
       0.55050	      44.86084	      36.84998	      42.80090	      27.77100
       0.56361	      29.75464	      43.79272	      56.53381	      41.50391
       0.57672	      30.05981	      34.10339	      75.68359	      54.55017
       0.58982	      37.61292	      51.34583	      75.07324	      52.41394
       0.60293	      45.70007	      73.85254	      43.64014	      60.27222
       0.61604	      52.56653	      38.83362	      56.15234	      56.53381
       0.62915	      33.26416	      56.07605	      41.88538	      56.99158
       0.64225	      36.77368	      59.58557	      53.48206	      59.66187
       0.65536	      53.40576	      56.07605	      43.02979	      42.34314
       0.66847	      65.30762	      55.84717	      61.56921	      56.53381
       0.68157	      69.65637	      66.90979	      65.91797	      37.76550
       0.69468	      54.70276	      67.97791	      97.12219	      43.02979
       0.70779	      73.47107	      44.86084	      73.69995	      57.22046
       0.72090	      39.52026	      59.43298	      46.84448	      75.14954
       0.73400	      57.83081	      55.99976	      32.65381	      39.97803
       0.74711	      36.31592	      45.31860	      40.13062	      37.15515
       0.76022	      55.08423	      42.87720	      53.02429	      46.76819
       0.77332	      51.19324	      53.93982	      50.27771	      39.67285
       0.78643	      33.56934	      65.07874	      73.08960	      61.49292
       0.79954	      41.12244	      73.31848	      35.62927	      69.96155
       0.81265	      65.38391	      74.08142	      42.26685	      24.10889
       0.82575	      69.04602	      29.98352	      46.76819	      58.59375
       0.83886	      30.21240	      44.47937	      49.51477	      45.31860
       0.85197	      47.98889	      70.87708	      56.68640	      38.83362
       0.86508	      60.65369	      53.71094	      46.53931	      37.91809
       0.87818	      76.21765	      57.75452	      26.62659	      49.05701
       0.89129	      58.44116	      52.33765	      56.99158	      44.25049
       0.90440	      53.55835	      55.46570	      45.47119	      51.95618
       0.91750	      51.57471	      61.64551	      42.41943	      62.63733
       0.93061	      63.85803	      55.99976	      56.61011	      49.89624

Monitor Diode	      1.00
