ALV-7004/USB-FAST
Date :	"11/11/2025"
Time :	"3:59:29 PM"
Samplename : 	""
SampMemo(0) : 	""
SampMemo(1) : 	""
SampMemo(2) : 	""
SampMemo(3) : 	""
SampMemo(4) : 	""
SampMemo(5) : 	""
SampMemo(6) : 	""
SampMemo(7) : 	""
SampMemo(8) : 	""
SampMemo(9) : 	""
Temperature [K] :	     298.16000
Viscosity [cp]  :	       0.89000
Refractive Index:	       1.33200
Wavelength [nm] :	       0.00000
Angle [°]       :	       0.00000
Duration [s]    :	         1
FloatDur [ms]   :	          944
Stop TP [ms]   :	     68338
Runs            :	         1
Mode            :	"A-CH0+1  A-CH2+3 "
MeanCR0 [kHz]   :	      58.07877
MeanCR1 [kHz]   :	      58.58845
MeanCR2 [kHz]   :	      58.96886
MeanCR3 [kHz]   :	      55.88638

"Correlation"
  3.12500E-006	 -1.00000E+000	 -1.00000E+000	 -1.00000E+000	 -1.00000E+000
  6.25000E-006	 -1.00000E+000	 -1.00000E+000	 -1.00000E+000	 -1.00000E+000
  9.37500E-006	 -1.00000E+000	 -1.00000E+000	 -1.00000E+000	 -1.00000E+000
  1.25000E-005	 -1.00000E+000	 -1.00000E+000	 -1.00000E+000	 -1.00000E+000
  1.56250E-005	 -1.00000E+000	 -1.00000E+000	 -1.00000E+000	 -1.00000E+000
  1.87500E-005	 -1.00000E+000	 -1.00000E+000	 -1.00000E+000	 -1.00000E+000
  2.18750E-005	 -1.00000E+000	  1.17323E+000	  3.65180E-001	 -8.91434E-001
  2.50000E-005	  1.13645E+001	  1.30272E+001	  1.24568E+001	  2.37532E+001
  2.81250E-005	  4.52886E+000	  2.85255E+000	  1.73036E+000	  7.35962E+000
  3.12500E-005	  1.61364E+000	  9.75666E-001	  1.70155E-001	  4.21119E+000
  3.43750E-005	  5.07870E-001	  6.79316E-001	  1.63285E+000	  3.45122E+000
  3.75000E-005	  7.08920E-001	  8.76882E-001	  8.52745E-001	  2.69126E+000
  4.06250E-005	  1.01049E+000	  1.17323E+000	  7.55232E-001	  3.66836E+000
  4.37500E-005	  1.31207E+000	  7.78099E-001	  3.65180E-001	  2.69126E+000
  4.68750E-005	  1.05772E-001	  1.66715E+000	  9.50258E-001	  1.82273E+000
  5.00000E-005	  1.41259E+000	  8.76882E-001	  1.43782E+000	  2.25699E+000
  5.62500E-005	  6.58657E-001	  7.28707E-001	  6.08963E-001	  1.55131E+000
  6.25000E-005	  5.58133E-001	  7.28707E-001	  4.13937E-001	  1.22561E+000
  6.87500E-005	  4.07346E-001	  4.81749E-001	  5.11450E-001	  9.54196E-001
  7.50000E-005	  6.58657E-001	  8.27491E-001	  7.06476E-001	  1.17133E+000
  8.12500E-005	  6.58657E-001	  6.29924E-001	  9.01501E-001	  5.19930E-001
  8.75000E-005	  3.06821E-001	  7.28707E-001	  6.08963E-001	  8.45630E-001
  9.37500E-005	  5.07870E-001	  6.79316E-001	 -2.19897E-001	  8.45630E-001
  1.00000E-004	  7.08920E-001	  5.55837E-001	  5.35828E-001	  7.37063E-001
  1.12500E-004	  5.83264E-001	  6.54620E-001	  1.02339E+000	  1.00848E+000
  1.25000E-004	  4.32477E-001	  5.06445E-001	  8.03988E-001	  4.92789E-001
  1.37500E-004	  7.34051E-001	  3.58270E-001	  4.87071E-001	  4.11364E-001
  1.50000E-004	  6.83788E-001	  5.55837E-001	  3.89558E-001	  4.92789E-001
  1.62500E-004	  6.08395E-001	  7.28707E-001	  1.02339E+000	  7.37063E-001
  1.75000E-004	  8.34575E-001	  2.84183E-001	  5.35828E-001	  6.55638E-001
  1.87500E-004	  3.82214E-001	  3.58270E-001	  4.87071E-001	  6.82780E-001
  2.00000E-004	  5.20436E-001	  3.45922E-001	  5.96773E-001	  6.69209E-001
  2.25000E-004	  5.95829E-001	  6.66967E-001	  4.50504E-001	  6.42067E-001
  2.50000E-004	  2.06296E-001	  4.57053E-001	  5.11449E-001	  6.14925E-001
  2.75000E-004	  4.45042E-001	  6.79315E-001	  3.77369E-001	  4.24934E-001
  3.00000E-004	  7.59182E-001	  4.44705E-001	  7.18664E-001	  2.34943E-001
  3.25000E-004	  5.33001E-001	  4.94097E-001	  5.84584E-001	  5.06359E-001
  3.50000E-004	  7.34050E-001	  3.95313E-001	  4.38315E-001	  5.47071E-001
  3.75000E-004	  5.70698E-001	  5.68184E-001	  6.82097E-001	  4.38505E-001
  4.00000E-004	  7.15201E-001	  4.81748E-001	  4.07841E-001	  5.74212E-001
  4.50000E-004	  4.45041E-001	  5.74357E-001	  5.90678E-001	  3.50294E-001
  5.00000E-004	  6.83787E-001	  4.75574E-001	  4.93165E-001	  4.72431E-001
  5.50000E-004	  2.87972E-001	  5.55836E-001	  6.33340E-001	  5.26715E-001
  6.00000E-004	  6.33525E-001	  5.24966E-001	  3.65179E-001	  5.94569E-001
  6.50000E-004	  5.26718E-001	  4.50878E-001	  5.11449E-001	  2.82440E-001
  7.00000E-004	  3.50800E-001	  4.81748E-001	  6.69907E-001	  5.26715E-001
  7.50000E-004	  6.58656E-001	  5.00270E-001	  3.52990E-001	  6.35281E-001
  8.00000E-004	  5.07868E-001	  4.97182E-001	  5.17542E-001	  5.36891E-001
  9.00000E-004	  4.04202E-001	  5.40399E-001	  5.29731E-001	  4.11362E-001
  1.00000E-003	  5.42423E-001	  4.66312E-001	  4.84022E-001	  5.36891E-001
  1.10000E-003	  5.76979E-001	  4.60138E-001	  4.71833E-001	  3.43508E-001
  1.20000E-003	  5.01585E-001	  5.15704E-001	  4.44407E-001	  4.82608E-001
  1.30000E-003	  4.60747E-001	  4.69399E-001	  4.53549E-001	  4.89394E-001
  1.40000E-003	  3.72813E-001	  6.08313E-001	  4.71833E-001	  3.91005E-001
  1.50000E-003	  4.95330E-001	  4.26181E-001	  4.53549E-001	  4.45289E-001
  1.60000E-003	  5.34595E-001	  5.04897E-001	  4.10885E-001	  4.24930E-001
  1.80000E-003	  4.81191E-001	  4.20005E-001	  3.27085E-001	  3.85914E-001
  2.00000E-003	  4.41923E-001	  4.67853E-001	  4.82496E-001	  4.57161E-001
  2.20000E-003	  4.85903E-001	  4.49331E-001	  4.33739E-001	  3.79129E-001
  2.40000E-003	  4.30928E-001	  4.83288E-001	  4.88590E-001	  3.79129E-001
  2.60000E-003	  4.01084E-001	  5.29592E-001	  4.50499E-001	  3.38416E-001
  2.80000E-003	  5.28312E-001	  4.58592E-001	  3.81936E-001	  4.04574E-001
  3.00000E-003	  3.80664E-001	  4.03027E-001	  4.33739E-001	  4.07967E-001
  3.20000E-003	  4.89825E-001	  4.46266E-001	  4.90109E-001	  4.00328E-001
  3.60000E-003	  4.78044E-001	  4.63244E-001	  4.10118E-001	  4.49522E-001
  4.00000E-003	  4.76473E-001	  4.32374E-001	  3.69742E-001	  4.04569E-001
  4.40000E-003	  4.23855E-001	  4.20798E-001	  3.72789E-001	  4.70726E-001
  4.80000E-003	  4.34850E-001	  4.59385E-001	  3.68980E-001	  3.96936E-001
  5.20000E-003	  3.73592E-001	  4.80223E-001	  4.04786E-001	  4.60548E-001
  5.60000E-003	  4.24640E-001	  3.88384E-001	  4.98489E-001	  3.56223E-001
  6.00000E-003	  3.95582E-001	  4.13080E-001	  4.39067E-001	  3.97784E-001
  6.40000E-003	  3.75153E-001	  4.56315E-001	  3.70495E-001	  3.96528E-001
  7.20000E-003	  4.15599E-001	  3.95731E-001	  4.00205E-001	  3.88047E-001
  8.00000E-003	  3.92456E-001	  4.12710E-001	  3.76970E-001	  3.91439E-001
  8.80000E-003	  4.13661E-001	  4.32004E-001	  3.52592E-001	  3.85502E-001
  9.60000E-003	  3.99157E-001	  4.03424E-001	  3.92256E-001	  3.35035E-001
  1.04000E-002	  3.62244E-001	  4.18473E-001	  3.84638E-001	  3.46062E-001
  1.12000E-002	  4.10964E-001	  3.90304E-001	  3.57617E-001	  3.58784E-001
  1.20000E-002	  3.59128E-001	  3.77184E-001	  3.41618E-001	  3.99073E-001
  1.28000E-002	  3.56557E-001	  3.60405E-001	  3.70765E-001	  3.37850E-001
  1.44000E-002	  3.37904E-001	  3.53073E-001	  3.56671E-001	  3.35729E-001
  1.60000E-002	  3.54422E-001	  3.48636E-001	  3.34006E-001	  3.55425E-001
  1.76000E-002	  3.52262E-001	  3.65228E-001	  3.30387E-001	  3.36340E-001
  1.92000E-002	  3.40284E-001	  3.21817E-001	  3.18388E-001	  3.48639E-001
  2.08000E-002	  3.42641E-001	  3.39182E-001	  3.13245E-001	  3.14499E-001
  2.24000E-002	  3.06709E-001	  3.25073E-001	  2.87723E-001	  3.13227E-001
  2.40000E-002	  3.09261E-001	  3.32019E-001	  3.22959E-001	  3.17680E-001
  2.56000E-002	  3.19852E-001	  3.20455E-001	  2.98781E-001	  3.07265E-001
  2.88000E-002	  3.05126E-001	  3.05116E-001	  2.84043E-001	  2.86481E-001
  3.20000E-002	  2.68605E-001	  3.11773E-001	  2.47496E-001	  2.99255E-001
  3.52000E-002	  2.90596E-001	  2.78009E-001	  2.68638E-001	  2.46209E-001
  3.84000E-002	  2.56825E-001	  2.70774E-001	  2.62425E-001	  2.48625E-001
  4.16000E-002	  2.77245E-001	  2.47525E-001	  2.46902E-001	  2.48283E-001
  4.48000E-002	  2.53215E-001	  2.59391E-001	  2.36998E-001	  2.13525E-001
  4.80000E-002	  2.40867E-001	  2.30524E-001	  2.28903E-001	  2.38551E-001
  5.12000E-002	  2.23080E-001	  2.24053E-001	  2.18998E-001	  2.32803E-001
  5.76000E-002	  2.19988E-001	  2.23860E-001	  2.06570E-001	  2.03107E-001
  6.40000E-002	  1.98477E-001	  1.96392E-001	  1.87999E-001	  1.76623E-001
  7.04000E-002	  1.79501E-001	  1.79317E-001	  1.74381E-001	  1.72602E-001
  7.68000E-002	  1.68919E-001	  1.76664E-001	  1.65905E-001	  1.56778E-001
  8.32000E-002	  1.67909E-001	  1.47529E-001	  1.55239E-001	  1.40235E-001
  8.96000E-002	  1.39743E-001	  1.62145E-001	  1.46837E-001	  1.26724E-001
  9.60000E-002	  1.48230E-001	  1.46468E-001	  1.38314E-001	  1.19492E-001
  1.02400E-001	  1.30571E-001	  1.43898E-001	  1.24556E-001	  1.12260E-001
  1.15200E-001	  1.11990E-001	  1.20595E-001	  1.14993E-001	  9.59804E-002
  1.28000E-001	  1.00944E-001	  1.07256E-001	  9.17573E-002	  8.37578E-002
  1.40800E-001	  8.93774E-002	  9.52424E-002	  8.37344E-002	  7.44516E-002
  1.53600E-001	  8.27743E-002	  8.20955E-002	  7.61162E-002	  5.76085E-002
  1.66400E-001	  6.66713E-002	  7.64221E-002	  7.53068E-002	  6.47465E-002
  1.79200E-001	  6.21250E-002	  7.59832E-002	  8.23925E-002	  5.47117E-002
  1.92000E-001	  5.73382E-002	  7.01212E-002	  5.94466E-002	  5.24980E-002
  2.04800E-001	  5.26921E-002	  5.66686E-002	  5.01960E-002	  4.14662E-002
  2.30400E-001	  3.80436E-002	  4.31650E-002	  4.07174E-002	  3.92919E-002
  2.56000E-001	  3.44354E-002	  2.91130E-002	  3.12006E-002	  3.60163E-002
  2.81600E-001	  2.56486E-002	  2.84680E-002	  1.87604E-002	  2.53695E-002
  3.07200E-001	  2.51098E-002	  2.32695E-002	  1.97797E-002	  1.88727E-002
  3.32800E-001	  2.41658E-002	  1.99024E-002	  1.23803E-002	  1.57304E-002
  3.58400E-001	  1.73166E-002	  2.06206E-002	  1.64177E-002	  1.21180E-002
  3.84000E-001	  9.38654E-003	  2.08322E-002	  1.61591E-002	  1.27306E-002
  4.09600E-001	  1.07719E-002	  1.91506E-002	  1.00608E-002	  8.66653E-003
  4.60800E-001	  1.60770E-002	  1.16730E-002	  9.46060E-003	  4.87436E-003
  5.12000E-001	  1.44808E-002	  7.26067E-003	  5.56542E-003	  3.52137E-003
  5.63200E-001	  1.92462E-002	  3.34968E-003	  5.79764E-003	  3.69059E-003
  6.14400E-001	  1.70058E-002	 -7.61033E-003	  8.13761E-003	 -4.98483E-003
  6.65600E-001	  2.23320E-002	 -6.73474E-003	  1.17581E-002	  1.78637E-003
  7.16800E-001	  1.64301E-002	  1.97355E-003	  8.91423E-004	  4.43000E-003
  7.68000E-001	  8.49409E-003	  1.24332E-003	 -4.95779E-004	  1.93802E-003
  8.19200E-001	  7.82569E-003	  4.76383E-003	 -3.54274E-005	  1.61742E-003
  9.21600E-001	  8.59694E-003	  1.62101E-003	 -8.33789E-003	  2.67244E-003
  1.02400E+000	  8.12989E-003	 -1.36733E-003	 -8.71033E-003	  2.17683E-003
  1.12640E+000	 -2.17992E-004	 -1.18854E-002	 -7.24499E-003	  4.09292E-003
  1.22880E+000	  2.94378E-003	 -4.80944E-003	 -9.01709E-003	 -2.58094E-003
  1.33120E+000	  1.81966E-003	 -2.10733E-003	 -4.50464E-003	 -8.36059E-003
  1.43360E+000	  2.56259E-003	 -8.65606E-003	 -1.00957E-002	 -5.60632E-003
  1.53600E+000	  2.72502E-003	 -3.90625E-003	 -6.73053E-004	 -3.73033E-003
  1.63840E+000	 -3.26266E-003	 -4.81588E-003	  7.58669E-003	 -2.99788E-003
  1.84320E+000	  5.53077E-003	 -1.03263E-003	  5.68087E-003	 -6.90927E-004
  2.04800E+000	  4.18809E-003	  3.53995E-003	  4.53159E-003	  5.84009E-006
  2.25280E+000	 -2.07886E-003	 -4.24321E-003	  5.50654E-003	 -3.53890E-003
  2.45760E+000	 -1.24544E-003	  5.29594E-005	  2.87608E-003	  3.15157E-003
  2.66240E+000	 -4.62146E-003	  6.84703E-003	  4.81294E-003	 -1.45373E-003
  2.86720E+000	 -8.44908E-003	  2.98642E-003	 -8.74248E-004	  1.72352E-003
  3.07200E+000	 -3.88384E-003	  5.40535E-003	 -1.08955E-003	  3.06862E-003
  3.27680E+000	 -3.32566E-003	  4.80129E-004	  3.32772E-003	  1.13958E-002
  3.68640E+000	  4.30461E-003	  4.69988E-003	  7.28279E-004	  1.52602E-003
  4.09600E+000	  9.24510E-005	 -3.82271E-003	  5.37562E-003	  5.10275E-003
  4.50560E+000	 -8.04001E-003	  5.64749E-004	  8.31872E-003	 -7.63053E-004
  4.91520E+000	 -8.61625E-003	 -3.78048E-005	 -1.90626E-003	 -2.48233E-003
  5.32480E+000	  3.11143E-003	  1.00449E-003	 -2.03464E-003	 -3.09235E-003
  5.73440E+000	 -1.28994E-003	 -1.64045E-003	 -4.10795E-003	  1.95481E-003
  6.14400E+000	  7.99929E-003	 -5.65484E-003	 -3.13574E-003	  1.36278E-003
  6.55360E+000	  2.73249E-003	 -3.24676E-003	  2.65314E-004	  3.68511E-003
  7.37280E+000	 -4.77348E-006	  6.08439E-005	 -3.70302E-003	  2.03896E-003
  8.19200E+000	  4.91948E-003	 -3.07329E-003	 -2.76378E-003	  4.26462E-003
  9.01120E+000	 -1.64187E-003	 -4.69268E-004	  4.37535E-003	  4.47342E-003
  9.83040E+000	 -1.53055E-003	  3.30573E-003	 -4.65819E-003	 -4.39728E-004
  1.06496E+001	  2.87141E-003	 -2.43444E-003	  1.91843E-004	  9.27226E-004
  1.14688E+001	  7.68503E-004	 -6.24245E-003	  2.54451E-003	 -5.74868E-003
  1.22880E+001	  1.16181E-003	 -3.52567E-003	  1.11517E-003	  1.36517E-003
  1.31072E+001	 -3.92185E-003	  1.60155E-003	 -3.52352E-004	  3.96195E-003
  1.47456E+001	 -4.86123E-003	 -3.94494E-003	 -4.09586E-003	 -7.81556E-004
  1.63840E+001	 -1.09403E-003	 -3.35036E-003	  1.62465E-003	  3.82990E-004
  1.80224E+001	  5.04137E-003	  6.02666E-003	 -1.44445E-003	 -4.59649E-004
  1.96608E+001	  1.82783E-003	 -1.10230E-003	  1.48021E-003	  2.90551E-003
  2.12992E+001	  1.75938E-003	 -2.63908E-003	  2.70061E-003	 -2.48027E-003
  2.29376E+001	  1.19923E-003	 -2.65739E-004	 -1.49629E-003	  2.41960E-004
  2.45760E+001	 -7.63329E-004	 -3.00678E-003	  8.40039E-004	  3.84494E-005
  2.62144E+001	 -3.43116E-003	 -2.49379E-003	  5.56236E-004	  6.60495E-004
  2.94912E+001	 -3.09983E-005	 -4.31228E-003	  9.85460E-004	 -8.83549E-005
  3.27680E+001	 -1.16494E-003	  6.35570E-004	 -5.68850E-004	 -1.88658E-003
  3.60448E+001	 -1.41679E-003	  1.85239E-003	 -4.66653E-003	  9.13290E-004
  3.93216E+001	 -7.87850E-004	 -3.71453E-005	  3.38616E-004	  9.25983E-004
  4.25984E+001	 -1.06208E-004	 -1.32911E-003	 -8.61910E-004	  5.42308E-003
  4.58752E+001	 -5.27085E-004	 -2.40885E-003	  1.19464E-003	  4.11271E-005
  4.91520E+001	  8.81857E-004	 -9.18413E-004	  3.60638E-004	  2.04782E-003
  5.24288E+001	 -2.07298E-004	  8.78944E-004	  6.92090E-004	  1.16548E-003
  5.89824E+001	  4.26824E-004	  2.79057E-003	  4.95117E-004	 -1.78312E-003
  6.55360E+001	 -2.63849E-003	 -3.64029E-004	  2.05123E-003	 -1.30091E-003
  7.20896E+001	 -1.03600E-003	  1.12814E-003	  1.67397E-003	 -2.47282E-004
  7.86432E+001	 -1.19606E-003	  2.05369E-004	 -2.92390E-003	 -3.20172E-004
  8.51968E+001	 -9.82049E-004	 -1.64338E-003	 -2.02189E-003	 -3.94004E-004
  9.17504E+001	  3.66685E-004	 -3.56944E-004	  9.21421E-004	 -2.00919E-004
  9.83040E+001	 -4.14280E-004	 -1.74129E-004	  5.41796E-004	  2.17708E-004
  1.04858E+002	  1.00681E-003	  8.37582E-004	  1.18485E-003	  5.37548E-005
  1.17965E+002	  8.16556E-004	 -1.18734E-003	  1.72112E-003	  1.33657E-003
  1.31072E+002	 -2.84508E-004	  1.35182E-003	 -6.12377E-004	 -5.12414E-004
  1.44179E+002	  8.13333E-004	 -8.20471E-004	  4.99027E-005	 -7.94143E-005
  1.57286E+002	  1.26438E-003	 -9.24054E-004	 -8.68347E-004	  1.60950E-003
  1.70394E+002	  1.08759E-003	  1.59566E-003	  2.26794E-003	 -3.60251E-004
  1.83501E+002	  1.53598E-003	 -7.11866E-004	 -1.24785E-003	  4.21697E-004
  1.96608E+002	 -8.43093E-004	  9.76169E-005	 -2.20028E-003	 -6.54677E-004
  2.09715E+002	 -1.41572E-003	 -1.38780E-003	 -2.59577E-004	 -1.64390E-004
  2.35930E+002	 -7.24737E-004	  1.61459E-003	 -2.96811E-004	 -9.14542E-004
  2.62144E+002	 -4.61537E-004	 -1.55854E-003	  2.33467E-004	 -7.59800E-004
  2.88358E+002	  8.19223E-004	  4.57944E-004	 -1.90560E-003	 -6.21470E-004
  3.14573E+002	  8.85776E-004	 -7.00435E-005	 -1.25174E-003	  4.97312E-004
  3.40787E+002	 -5.01417E-004	 -1.54166E-003	  1.64065E-004	 -4.93585E-004
  3.67002E+002	  3.34274E-004	  5.76797E-004	 -7.77377E-004	 -6.72158E-004
  3.93216E+002	 -7.38237E-004	 -9.21387E-004	  9.02246E-004	 -1.40235E-003

"Count Rate"
       0.01311	      52.94800	      54.16870	      52.10876	      48.37036
       0.02621	      59.50928	      56.76270	      57.98340	      52.41394
       0.03932	      47.53113	      61.87439	      55.31311	      62.94250
       0.05243	      59.89075	      54.09241	      60.65369	      58.28857
       0.06554	      63.32397	      63.47656	      56.30493	      61.64551
       0.07864	      57.14417	      61.87439	      59.73816	      56.61011
       0.09175	      60.95886	      51.87988	      58.51746	      72.70813
       0.10486	      55.99976	      67.67273	      61.18774	      55.92346
       0.11796	      51.11694	      48.67554	      48.21777	      44.70825
       0.13107	      58.13599	      55.31311	      51.19324	      59.96704
       0.14418	      61.64551	      57.67822	      54.01611	      53.55835
       0.15729	      55.77087	      60.11963	      57.90710	      54.09241
       0.17039	      54.47388	      54.93164	      66.98608	      51.95618
       0.18350	      60.72998	      54.09241	      53.78723	      52.18506
       0.19661	      61.87439	      58.82263	      66.22314	      55.54199
       0.20972	      55.77087	      61.72180	      56.45752	      53.55835
       0.22282	      51.11694	      57.06787	      64.31580	      50.43030
       0.23593	      57.75452	      57.60193	      57.37305	      55.23682
       0.24904	      61.18774	      55.23682	      51.57471	      67.06238
       0.26214	      49.43848	      57.29675	      54.47388	      56.07605
       0.27525	      54.47388	      56.99158	      63.62915	      59.28040
       0.28836	      63.32397	      63.70544	      62.02698	      55.31311
       0.30147	      56.30493	      54.85535	      55.08423	      46.99707
       0.31457	      51.49841	      45.01343	      60.57739	      55.61829
       0.32768	      55.69458	      57.67822	      66.07056	      48.52295
       0.34079	      56.30493	      57.06787	      64.54468	      50.81177
       0.35389	      55.46570	      61.95068	      55.99976	      51.72729
       0.36700	      68.89343	      49.97253	      64.54468	      55.38940
       0.38011	      51.72729	      48.52295	      55.77087	      57.98340
       0.39322	      61.34033	      56.91528	      67.67273	      55.69458
       0.40632	      65.23132	      70.64819	      52.79541	      55.38940
       0.41943	      49.59106	      57.14417	      53.93982	      53.40576
       0.43254	      45.62378	      59.73816	      58.36487	      50.88806
       0.44564	      54.93164	      53.02429	      71.10596	      51.57471
       0.45875	      56.76270	      62.78992	      56.68640	      46.76819
       0.47186	      55.23682	      59.66187	      53.40576	      52.87170
       0.48497	      61.56921	      49.81995	      51.72729	      58.44116
       0.49807	      55.23682	      65.07874	      61.03516	      54.70276
       0.51118	      69.50378	      62.94250	      65.99426	      47.98889
       0.52429	      54.39758	      63.17139	      46.84448	      50.04883
       0.53740	      63.93433	      55.92346	      55.99976	      55.00793
       0.55050	      57.52563	      45.08972	      56.07605	      55.84717
       0.56361	      57.22046	      65.30762	      54.77905	      53.93982
       0.57672	      56.07605	      58.89893	      55.23682	      54.47388
       0.58982	      55.16052	      58.44116	      55.99976	      53.86353
       0.60293	      55.08423	      58.59375	      62.10327	      50.96436
       0.61604	      52.33765	      56.76270	      59.66187	      59.81445
       0.62915	      53.32947	      56.76270	      50.35400	      60.50110
       0.64225	      64.08691	      60.27222	      56.22864	      54.77905
       0.65536	      64.84985	      58.21228	      54.62646	      51.04065
       0.66847	      61.95068	      68.96973	      53.86353	      55.38940
       0.68157	      56.68640	      49.05701	      55.08423	      52.79541
       0.69468	      60.11963	      63.09509	      63.55286	      61.26404
       0.70779	      54.16870	      61.41663	      54.77905	      65.91797
       0.72090	      57.67822	      55.38940	      60.11963	      52.71912
       0.73400	      57.90710	      58.36487	      50.27771	      56.99158
       0.74711	      60.19592	      58.36487	      62.94250	      69.58008
       0.76022	      55.00793	      54.32129	      52.71912	      51.49841
       0.77332	      62.02698	      50.96436	      60.72998	      55.31311
       0.78643	      58.82263	      58.51746	      65.38391	      53.25317
       0.79954	      53.32947	      58.74634	      51.65100	      59.81445
       0.81265	      57.98340	      56.53381	      58.89893	      53.93982
       0.82575	      75.37842	      55.61829	      63.01880	      53.25317
       0.83886	      55.46570	      58.13599	      66.52832	      48.90442
       0.85197	      52.33765	      58.51746	      66.75720	      50.88806
       0.86508	      56.22864	      59.05151	      54.16870	      54.55017
       0.87818	      48.98071	      52.87170	      65.15503	      45.31860
       0.89129	      49.05701	      58.67004	      58.13599	      59.35669
       0.90440	      48.37036	      56.76270	      57.37305	      53.55835
       0.91750	      60.27222	      59.12781	      53.63464	      52.18506
       0.93061	      51.26953	      60.65369	      50.81177	      58.82263

Monitor Diode	      1.00
