ALV-7004/USB-FAST
Date :	"11/11/2025"
Time :	"4:00:02 PM"
Samplename : 	""
SampMemo(0) : 	""
SampMemo(1) : 	""
SampMemo(2) : 	""
SampMemo(3) : 	""
SampMemo(4) : 	""
SampMemo(5) : 	""
SampMemo(6) : 	""
SampMemo(7) : 	""
SampMemo(8) : 	""
SampMemo(9) : 	""
Temperature [K] :	     298.16000
Viscosity [cp]  :	       0.89000
Refractive Index:	       1.33200
Wavelength [nm] :	       0.00000
Angle [°]       :	       0.00000
Duration [s]    :	         1
FloatDur [ms]   :	          944
Stop TP [ms]   :	     68489
Runs            :	         1
Mode            :	"A-CH0+1  A-CH2+3 "
MeanCR0 [kHz]   :	      55.94677
MeanCR1 [kHz]   :	      56.61859
MeanCR2 [kHz]   :	      56.71395
MeanCR3 [kHz]   :	      55.32582

"Correlation"
  3.12500E-006	 -1.00000E+000	 -1.00000E+000	 -1.00000E+000	 -1.00000E+000
  6.25000E-006	 -1.00000E+000	 -1.00000E+000	 -1.00000E+000	 -1.00000E+000
  9.37500E-006	 -1.00000E+000	 -1.00000E+000	 -1.00000E+000	 -1.00000E+000
  1.25000E-005	 -1.00000E+000	 -1.00000E+000	 -1.00000E+000	 -1.00000E+000
  1.56250E-005	 -1.00000E+000	 -1.00000E+000	 -1.00000E+000	 -1.00000E+000
  1.87500E-005	 -1.00000E+000	 -1.00000E+000	 -1.00000E+000	 -1.00000E+000
  2.18750E-005	 -1.00000E+000	  5.77658E-002	  4.75896E-001	 -7.78445E-001
  2.50000E-005	  1.27582E+001	  1.24336E+001	  1.19668E+001	  2.68052E+001
  2.81250E-005	  2.46663E+000	  1.11553E+000	  2.79516E+000	  8.41609E+000
  3.12500E-005	  1.16664E+000	  4.80872E-001	  3.70475E-001	  5.75743E+000
  3.43750E-005	  1.38331E+000	  3.75096E-001	  7.92159E-001	  4.09577E+000
  3.75000E-005	  7.33315E-001	  5.86649E-001	  3.70475E-001	  2.65566E+000
  4.06250E-005	  9.49979E-001	  9.03978E-001	  1.21384E+000	  3.20955E+000
  4.37500E-005	  1.27498E+000	  7.98202E-001	  1.21384E+000	  3.43110E+000
  4.68750E-005	  4.08318E-001	  1.22131E+000	  6.86738E-001	  2.76644E+000
  5.00000E-005	  1.91654E-001	  4.27984E-001	  3.17764E-001	  2.21255E+000
  5.62500E-005	  1.91654E-001	  9.03978E-001	  4.75896E-001	  1.65866E+000
  6.25000E-005	  9.49979E-001	  3.75095E-001	  6.86738E-001	  1.04938E+000
  6.87500E-005	  4.08318E-001	  3.75095E-001	  4.23185E-001	  1.38172E+000
  7.50000E-005	  8.41647E-001	  1.11553E+000	  5.28606E-001	  1.27094E+000
  8.12500E-005	  5.70816E-001	  5.33760E-001	  7.92159E-001	  1.32633E+000
  8.75000E-005	  7.33315E-001	  5.77657E-002	  8.44870E-001	  4.95497E-001
  9.37500E-005	  6.24982E-001	  5.86649E-001	  7.92159E-001	  1.04938E+000
  1.00000E-004	  4.62484E-001	  1.63542E-001	  9.50291E-001	  1.07708E+000
  1.12500E-004	  7.33314E-001	  7.45313E-001	  6.07672E-001	  1.21555E+000
  1.25000E-004	  6.79148E-001	  4.54428E-001	  3.70475E-001	  7.17052E-001
  1.37500E-004	  3.81235E-001	  7.18869E-001	  1.05571E+000	  6.33968E-001
  1.50000E-004	  3.27069E-001	  6.65981E-001	  4.49540E-001	  3.01636E-001
  1.62500E-004	  6.24982E-001	  5.86648E-001	  6.07672E-001	  5.23191E-001
  1.75000E-004	  3.27069E-001	  6.13093E-001	  4.23185E-001	  8.27829E-001
  1.87500E-004	  4.89567E-001	  6.92425E-001	  2.65053E-001	  8.27829E-001
  2.00000E-004	  4.76025E-001	  5.46982E-001	  4.62718E-001	  4.40107E-001
  2.25000E-004	  6.79148E-001	  3.88317E-001	  5.54961E-001	  4.40107E-001
  2.50000E-004	  4.62484E-001	  5.86648E-001	  3.83652E-001	  7.44746E-001
  2.75000E-004	  4.89567E-001	  4.01539E-001	  6.07672E-001	  6.06274E-001
  3.00000E-004	  4.62484E-001	  4.54427E-001	  2.51876E-001	  6.47815E-001
  3.25000E-004	  4.21859E-001	  5.99870E-001	  7.92159E-001	  7.17051E-001
  3.50000E-004	  6.79148E-001	  6.39536E-001	  1.85987E-001	  2.60094E-001
  3.75000E-004	  3.94776E-001	  4.01539E-001	  5.54961E-001	  4.53955E-001
  4.00000E-004	  4.55712E-001	  4.61038E-001	  5.02250E-001	  4.05489E-001
  4.50000E-004	  4.89566E-001	  3.42039E-001	  2.51875E-001	  4.81648E-001
  5.00000E-004	  3.88005E-001	  5.73425E-001	  4.95661E-001	  3.43177E-001
  5.50000E-004	  6.65606E-001	  5.73425E-001	  6.73559E-001	  5.99349E-001
  6.00000E-004	  5.23420E-001	  5.33759E-001	  5.02250E-001	  5.92426E-001
  6.50000E-004	  4.21859E-001	  5.99869E-001	  5.48372E-001	  4.47030E-001
  7.00000E-004	  5.03108E-001	  3.42039E-001	  4.03418E-001	  5.50884E-001
  7.50000E-004	  3.94776E-001	  3.94928E-001	  4.36362E-001	  4.60878E-001
  8.00000E-004	  5.84355E-001	  5.73424E-001	  6.01081E-001	  4.29720E-001
  9.00000E-004	  6.01282E-001	  3.75093E-001	  5.08838E-001	  5.19727E-001
  1.00000E-003	  4.79409E-001	  4.67648E-001	  4.29772E-001	  5.92425E-001
  1.10000E-003	  4.89565E-001	  3.81704E-001	  3.63884E-001	  4.67800E-001
  1.20000E-003	  3.27067E-001	  4.37898E-001	  5.22015E-001	  4.36644E-001
  1.30000E-003	  4.32013E-001	  4.21370E-001	  4.95660E-001	  6.09734E-001
  1.40000E-003	  5.57272E-001	  4.34592E-001	  3.83650E-001	  4.12411E-001
  1.50000E-003	  4.82794E-001	  4.24676E-001	  4.19889E-001	  5.26650E-001
  1.60000E-003	  4.06621E-001	  4.23021E-001	  4.51183E-001	  5.07608E-001
  1.80000E-003	  4.74328E-001	  4.75909E-001	  3.91884E-001	  4.53950E-001
  2.00000E-003	  4.45553E-001	  4.72603E-001	  4.59419E-001	  4.14140E-001
  2.20000E-003	  3.45684E-001	  4.59381E-001	  5.20365E-001	  4.86837E-001
  2.40000E-003	  4.64172E-001	  4.16410E-001	  4.94010E-001	  3.84715E-001
  2.60000E-003	  4.23548E-001	  4.19715E-001	  3.58940E-001	  4.90299E-001
  2.80000E-003	  4.32011E-001	  4.67645E-001	  3.63881E-001	  3.69137E-001
  3.00000E-003	  4.26933E-001	  3.86660E-001	  4.79185E-001	  4.38372E-001
  3.20000E-003	  4.30314E-001	  4.43675E-001	  3.97644E-001	  3.80383E-001
  3.60000E-003	  3.79533E-001	  4.49460E-001	  4.09175E-001	  3.89037E-001
  4.00000E-003	  4.75170E-001	  3.17240E-001	  3.84467E-001	  4.38367E-001
  4.40000E-003	  4.71784E-001	  3.72633E-001	  3.95174E-001	  3.68267E-001
  4.80000E-003	  4.37084E-001	  3.84202E-001	  4.61885E-001	  4.05481E-001
  5.20000E-003	  4.42162E-001	  4.27175E-001	  3.80349E-001	  4.69523E-001
  5.60000E-003	  4.16772E-001	  3.80897E-001	  3.35051E-001	  3.42303E-001
  6.00000E-003	  3.64299E-001	  3.55279E-001	  3.77878E-001	  4.08077E-001
  6.40000E-003	  4.10415E-001	  4.14769E-001	  3.91870E-001	  4.46174E-001
  7.20000E-003	  3.89680E-001	  3.94936E-001	  3.78280E-001	  3.63523E-001
  8.00000E-003	  3.92219E-001	  4.04853E-001	  4.21107E-001	  3.58763E-001
  8.80000E-003	  3.99413E-001	  3.88738E-001	  3.52749E-001	  3.95545E-001
  9.60000E-003	  3.63443E-001	  3.77582E-001	  3.93929E-001	  4.09393E-001
  1.04000E-002	  3.83332E-001	  3.36676E-001	  3.17335E-001	  3.76505E-001
  1.12000E-002	  3.80370E-001	  4.11877E-001	  3.81163E-001	  3.99440E-001
  1.20000E-002	  3.75292E-001	  3.50724E-001	  3.57691E-001	  3.48378E-001
  1.28000E-002	  3.75749E-001	  3.58350E-001	  3.63257E-001	  3.83922E-001
  1.44000E-002	  3.44857E-001	  3.52359E-001	  3.38549E-001	  3.42595E-001
  1.60000E-002	  3.17985E-001	  3.63334E-001	  3.60992E-001	  3.86735E-001
  1.76000E-002	  3.60514E-001	  3.41434E-001	  3.32784E-001	  3.36511E-001
  1.92000E-002	  3.12272E-001	  3.61888E-001	  3.20018E-001	  3.30453E-001
  2.08000E-002	  3.36816E-001	  3.53624E-001	  3.12812E-001	  3.55119E-001
  2.24000E-002	  3.45492E-001	  3.07139E-001	  2.77191E-001	  3.41488E-001
  2.40000E-002	  3.17139E-001	  3.23461E-001	  2.94487E-001	  3.25693E-001
  2.56000E-002	  2.98924E-001	  2.99898E-001	  2.90667E-001	  3.25128E-001
  2.88000E-002	  2.97760E-001	  2.90728E-001	  2.65626E-001	  3.13792E-001
  3.20000E-002	  2.83217E-001	  2.60771E-001	  2.60067E-001	  2.85551E-001
  3.52000E-002	  2.80149E-001	  2.71928E-001	  2.53685E-001	  2.73084E-001
  3.84000E-002	  2.58883E-001	  2.51061E-001	  2.60273E-001	  2.95589E-001
  4.16000E-002	  2.32328E-001	  2.43624E-001	  2.17962E-001	  2.55339E-001
  4.48000E-002	  2.44495E-001	  2.52404E-001	  2.50905E-001	  2.60184E-001
  4.80000E-002	  2.36349E-001	  2.20794E-001	  2.14050E-001	  2.46983E-001
  5.12000E-002	  2.14551E-001	  2.09805E-001	  2.06595E-001	  2.28768E-001
  5.76000E-002	  2.01696E-001	  2.07222E-001	  2.02014E-001	  2.14861E-001
  6.40000E-002	  1.86302E-001	  1.70053E-001	  1.85440E-001	  2.01712E-001
  7.04000E-002	  1.68663E-001	  1.57014E-001	  1.60940E-001	  1.88062E-001
  7.68000E-002	  1.62113E-001	  1.63626E-001	  1.60528E-001	  1.69426E-001
  8.32000E-002	  1.51882E-001	  1.39524E-001	  1.33291E-001	  1.42589E-001
  8.96000E-002	  1.45375E-001	  1.32138E-001	  1.30841E-001	  1.73277E-001
  9.60000E-002	  1.26227E-001	  1.37820E-001	  1.19053E-001	  1.33693E-001
  1.02400E-001	  1.17917E-001	  1.19029E-001	  1.05443E-001	  1.18364E-001
  1.15200E-001	  9.07004E-002	  1.00843E-001	  9.58107E-002	  1.06192E-001
  1.28000E-001	  8.95308E-002	  7.84062E-002	  9.15475E-002	  9.09426E-002
  1.40800E-001	  7.18886E-002	  7.18365E-002	  8.77066E-002	  7.15477E-002
  1.53600E-001	  6.64274E-002	  5.89870E-002	  6.28596E-002	  7.18248E-002
  1.66400E-001	  5.30896E-002	  6.42705E-002	  5.65209E-002	  5.79508E-002
  1.79200E-001	  5.17866E-002	  4.11125E-002	  4.31346E-002	  6.86444E-002
  1.92000E-001	  3.98908E-002	  4.75707E-002	  4.00196E-002	  3.84383E-002
  2.04800E-001	  3.63748E-002	  4.00757E-002	  4.59257E-002	  4.05697E-002
  2.30400E-001	  3.29091E-002	  2.61218E-002	  3.17567E-002	  3.37021E-002
  2.56000E-001	  2.48535E-002	  1.84341E-002	  2.24159E-002	  2.61379E-002
  2.81600E-001	  1.50710E-002	  1.00161E-002	  1.16034E-002	  1.22140E-002
  3.07200E-001	  1.68496E-002	  5.14021E-003	  1.20350E-002	  1.93662E-002
  3.32800E-001	  1.09763E-002	  2.54331E-003	  6.17767E-003	  1.28747E-002
  3.58400E-001	  1.42099E-002	  5.87290E-003	  8.37900E-003	  9.59267E-003
  3.84000E-001	  1.16496E-002	  5.84115E-003	  1.63537E-002	  8.67646E-003
  4.09600E-001	  8.73292E-003	  7.37282E-003	  1.07432E-002	  4.74121E-003
  4.60800E-001	  6.54469E-003	  1.19092E-002	  2.50016E-003	  3.15020E-004
  5.12000E-001	  5.10325E-004	  8.08765E-003	  8.07965E-004	  5.41743E-003
  5.63200E-001	 -6.68744E-003	  5.16512E-003	 -4.57688E-003	  3.16291E-003
  6.14400E-001	 -4.31946E-003	  6.63235E-003	 -3.08796E-003	 -1.85839E-003
  6.65600E-001	  5.26328E-003	  9.00252E-003	  8.31678E-004	 -5.02546E-003
  7.16800E-001	 -6.24911E-004	  6.88074E-003	  3.96237E-003	 -2.45273E-003
  7.68000E-001	 -4.04098E-003	  4.84728E-003	  5.73162E-003	  4.05934E-003
  8.19200E-001	 -6.78030E-003	  2.75106E-003	 -1.62794E-004	  2.58740E-003
  9.21600E-001	 -8.75578E-005	  5.09530E-003	 -2.06857E-003	  5.34733E-003
  1.02400E+000	 -2.13063E-003	  2.04806E-003	  8.62320E-003	 -4.09497E-003
  1.12640E+000	 -8.45466E-004	 -1.19684E-003	  4.90673E-003	 -9.64562E-003
  1.22880E+000	  3.19726E-003	 -3.13767E-003	  8.04469E-003	 -1.47273E-002
  1.33120E+000	  2.98197E-003	  8.56063E-003	  8.40625E-003	 -1.12916E-002
  1.43360E+000	 -1.37222E-004	 -1.23552E-003	  6.03069E-003	 -2.59153E-004
  1.53600E+000	 -7.51445E-004	 -5.68355E-003	  4.44078E-003	 -4.58268E-003
  1.63840E+000	 -5.95715E-005	 -8.23761E-004	  3.09832E-003	  1.58566E-003
  1.84320E+000	  1.22448E-003	  3.69507E-003	 -2.14072E-003	 -2.60436E-004
  2.04800E+000	  9.16974E-003	 -7.62559E-004	 -3.71634E-003	 -1.79997E-003
  2.25280E+000	  5.00182E-003	  3.21972E-004	 -3.11517E-003	  3.50806E-003
  2.45760E+000	 -1.48311E-003	  6.74982E-004	  8.14200E-003	  4.26063E-003
  2.66240E+000	 -1.43520E-003	 -4.71929E-003	  1.75903E-004	  1.60354E-003
  2.86720E+000	  4.96941E-003	 -3.64189E-003	 -3.38150E-003	 -1.98525E-003
  3.07200E+000	  1.82712E-003	  8.27605E-004	 -2.10489E-003	 -3.42369E-003
  3.27680E+000	  7.01841E-003	  3.25669E-003	 -2.04508E-003	  1.67983E-003
  3.68640E+000	 -1.53156E-003	 -2.45854E-003	  1.25487E-003	 -8.52326E-003
  4.09600E+000	 -8.93933E-004	 -3.09942E-003	 -1.41450E-004	 -2.81815E-003
  4.50560E+000	 -6.87793E-003	 -8.11759E-003	 -1.65370E-003	  3.08270E-003
  4.91520E+000	 -6.15536E-003	 -2.95046E-003	 -5.05434E-003	  4.46778E-003
  5.32480E+000	  3.01290E-003	 -7.20881E-003	 -2.82506E-003	 -2.61431E-003
  5.73440E+000	 -5.57452E-005	 -1.41233E-003	  5.60969E-004	  1.14233E-003
  6.14400E+000	  2.91800E-004	  2.77565E-003	 -4.86035E-003	  2.87805E-003
  6.55360E+000	 -5.87747E-005	 -1.92901E-003	  2.48391E-003	  9.56066E-004
  7.37280E+000	  2.11668E-004	 -6.79457E-003	 -3.05363E-003	 -4.21863E-003
  8.19200E+000	  2.87074E-003	 -4.52485E-003	  3.17873E-003	 -4.38337E-003
  9.01120E+000	  1.33122E-006	  2.77357E-003	 -2.09389E-003	  9.96142E-005
  9.83040E+000	  5.93725E-003	 -4.89377E-004	 -2.69013E-003	 -6.30846E-003
  1.06496E+001	  3.04066E-003	 -3.38951E-003	  3.66697E-003	  4.05767E-004
  1.14688E+001	 -1.56993E-003	  5.27238E-004	  5.22468E-003	  1.46461E-003
  1.22880E+001	  4.27130E-003	  1.58059E-003	  1.13575E-003	  1.26897E-003
  1.31072E+001	  7.78397E-004	 -4.92315E-003	  1.44311E-003	  2.70008E-003
  1.47456E+001	  2.68213E-004	 -1.23634E-003	  2.39891E-003	 -9.24858E-004
  1.63840E+001	  2.83853E-003	  1.03332E-003	  1.29421E-004	  4.02963E-004
  1.80224E+001	 -2.11344E-004	  1.18591E-004	 -3.09998E-003	  2.48903E-003
  1.96608E+001	  4.69183E-004	  1.18550E-003	 -9.36321E-004	 -3.96021E-004
  2.12992E+001	  2.60670E-003	 -4.04028E-004	 -4.15560E-004	  3.93967E-004
  2.29376E+001	  7.74396E-004	  2.93367E-003	  3.41238E-004	 -7.80912E-004
  2.45760E+001	  2.22756E-003	 -1.77112E-003	  1.93516E-003	 -7.41651E-004
  2.62144E+001	  4.01717E-003	  2.68382E-004	 -5.02331E-004	 -2.61415E-004
  2.94912E+001	 -5.46694E-004	 -1.58997E-003	  3.54764E-004	 -1.27626E-003
  3.27680E+001	  1.37345E-003	  1.74025E-003	 -9.77544E-004	 -1.75541E-004
  3.60448E+001	  1.86403E-003	  2.54065E-004	  1.47013E-003	 -3.78389E-004
  3.93216E+001	 -1.08077E-003	  2.15859E-003	  1.89973E-003	  1.59126E-003
  4.25984E+001	  2.88009E-004	 -3.53168E-003	  1.01946E-003	 -2.35938E-003
  4.58752E+001	  1.26902E-003	  3.37494E-004	 -1.17927E-003	  2.79489E-003
  4.91520E+001	  1.86827E-003	  1.50017E-003	  8.20213E-004	  4.56323E-003
  5.24288E+001	  4.46477E-004	 -1.89702E-003	 -1.32410E-003	  4.96701E-005
  5.89824E+001	  1.87065E-003	 -7.83553E-004	  8.99657E-004	  3.80455E-004
  6.55360E+001	 -1.59680E-003	 -7.39164E-004	 -3.14587E-003	  1.98964E-004
  7.20896E+001	 -1.32443E-003	  1.54372E-003	  1.12535E-003	 -8.14405E-005
  7.86432E+001	 -4.53454E-004	  6.13536E-004	 -1.12627E-003	  6.27867E-004
  8.51968E+001	 -2.17031E-003	  1.25096E-003	 -1.92601E-003	 -1.18566E-003
  9.17504E+001	 -1.82163E-003	  6.03134E-005	 -6.61827E-004	  8.16957E-004
  9.83040E+001	 -1.17030E-003	 -8.26325E-004	 -2.59338E-004	  2.57948E-004
  1.04858E+002	  9.37442E-004	 -5.87606E-004	 -4.33203E-004	  6.27229E-005
  1.17965E+002	 -2.13466E-003	  1.22789E-003	 -5.79849E-004	 -2.37910E-004
  1.31072E+002	 -8.64061E-004	 -1.87196E-004	 -1.38873E-003	 -3.71512E-004
  1.44179E+002	  1.33230E-004	 -2.75809E-004	  3.50833E-004	  7.72015E-004
  1.57286E+002	  1.12658E-003	  1.76523E-003	 -2.84130E-004	  9.24598E-004
  1.70394E+002	 -1.78406E-004	 -5.87643E-005	 -1.28670E-003	 -3.69254E-005
  1.83501E+002	 -8.71525E-004	 -6.34261E-004	 -1.15972E-003	  3.76141E-004
  1.96608E+002	 -8.67207E-004	  8.62511E-004	 -5.32304E-004	 -5.62269E-004
  2.09715E+002	  7.68830E-004	 -2.99204E-004	 -1.16377E-003	  5.34094E-004
  2.35930E+002	 -1.27889E-003	  3.29439E-004	  2.13428E-003	 -4.01959E-004
  2.62144E+002	  4.22687E-004	 -7.15974E-004	  1.55082E-003	 -1.69135E-004
  2.88358E+002	 -6.19344E-004	 -6.83213E-005	  7.11444E-004	 -8.70938E-004
  3.14573E+002	  4.24179E-004	  8.49837E-004	  7.20052E-005	  1.16125E-004
  3.40787E+002	  1.40701E-004	 -5.00980E-004	 -1.02615E-003	 -5.96710E-004
  3.67002E+002	  1.20659E-003	  2.45266E-005	  1.74024E-006	  1.07317E-003
  3.93216E+002	 -4.51224E-004	  6.64334E-004	 -3.27991E-004	 -1.51327E-004

"Count Rate"
       0.01311	      58.82263	      58.67004	      54.24500	      55.77087
       0.02621	      55.77087	      56.38123	      59.35669	      53.48206
       0.03932	      59.12781	      49.66736	      49.74365	      60.95886
       0.05243	      53.25317	      56.76270	      51.26953	      54.39758
       0.06554	      54.77905	      54.32129	      55.00793	      47.53113
       0.07864	      55.92346	      63.78174	      57.52563	      54.77905
       0.09175	      54.24500	      60.34851	      51.49841	      54.85535
       0.10486	      44.09790	      47.76001	      54.47388	      52.33765
       0.11796	      48.75183	      54.39758	      66.83350	      50.04883
       0.13107	      54.70276	      48.14148	      52.87170	      53.48206
       0.14418	      55.54199	      55.61829	      54.32129	      46.46301
       0.15729	      50.88806	      57.83081	      63.55286	      47.53113
       0.17039	      50.12512	      56.15234	      56.83899	      49.66736
       0.18350	      55.69458	      59.50928	      54.93164	      53.86353
       0.19661	      50.88806	      51.19324	      58.21228	      54.39758
       0.20972	      52.64282	      49.13330	      61.18774	      53.02429
       0.22282	      50.27771	      56.38123	      56.07605	      57.75452
       0.23593	      53.32947	      56.15234	      54.70276	      59.58557
       0.24904	      55.61829	      55.08423	      58.21228	      53.10059
       0.26214	      52.03247	      52.56653	      58.05969	      48.67554
       0.27525	      52.18506	      53.71094	      56.91528	      55.00793
       0.28836	      61.72180	      51.65100	      49.28589	      56.91528
       0.30147	      57.75452	      56.68640	      55.99976	      45.47119
       0.31457	      60.72998	      55.77087	      47.30225	      51.04065
       0.32768	      58.21228	      56.07605	      48.67554	      57.75452
       0.34079	      57.67822	      61.64551	      47.76001	      53.71094
       0.35389	      55.92346	      54.70276	      54.16870	      49.89624
       0.36700	      55.00793	      52.26135	      56.76270	      55.16052
       0.38011	      55.84717	      55.69458	      54.39758	      55.08423
       0.39322	      53.71094	      53.40576	      60.72998	      54.77905
       0.40632	      47.14966	      53.78723	      49.51477	      54.55017
       0.41943	      51.72729	      57.14417	      62.56104	      56.22864
       0.43254	      58.59375	      57.22046	      65.38391	      48.14148
       0.44564	      52.03247	      53.63464	      57.29675	      57.29675
       0.45875	      51.19324	      56.22864	      51.65100	      59.35669
       0.47186	      47.07336	      54.32129	      58.59375	      50.12512
       0.48497	      51.72729	      55.99976	      55.16052	      60.50110
       0.49807	      62.78992	      47.60742	      60.50110	      59.05151
       0.51118	      53.86353	      59.35669	      59.05151	      51.80359
       0.52429	      64.69727	      46.84448	      59.28040	      49.97253
       0.53740	      58.13599	      60.19592	      57.67822	      56.91528
       0.55050	      68.89343	      53.63464	      54.93164	      54.09241
       0.56361	      55.84717	      49.43848	      48.75183	      66.29944
       0.57672	      57.75452	      61.34033	      50.12512	      54.55017
       0.58982	      63.01880	      54.93164	      51.57471	      55.08423
       0.60293	      61.03516	      54.77905	      47.45483	      62.94250
       0.61604	      45.24231	      64.31580	      59.50928	      49.20959
       0.62915	      56.22864	      55.46570	      59.05151	      62.86621
       0.64225	      51.49841	      55.77087	      53.10059	      59.35669
       0.65536	      61.11145	      62.71362	      57.52563	      51.95618
       0.66847	      54.09241	      55.23682	      64.84985	      56.99158
       0.68157	      58.28857	      51.42212	      58.05969	      48.90442
       0.69468	      57.98340	      60.11963	      53.25317	      54.70276
       0.70779	      67.90161	      56.76270	      49.66736	      52.79541
       0.72090	      49.89624	      52.71912	      58.82263	      58.74634
       0.73400	      59.05151	      63.47656	      49.43848	      47.60742
       0.74711	      52.79541	      59.20410	      51.57471	      52.64282
       0.76022	      50.65918	      56.07605	      59.12781	      52.94800
       0.77332	      54.39758	      58.13599	      65.46021	      56.30493
       0.78643	      46.69189	      65.76538	      57.22046	      53.71094
       0.79954	      57.22046	      54.09241	      53.40576	      58.97522
       0.81265	      53.02429	      59.05151	      55.00793	      55.69458
       0.82575	      52.33765	      50.58289	      54.77905	      52.71912
       0.83886	      58.82263	      54.16870	      58.36487	      52.41394
       0.85197	      53.93982	      56.07605	      58.82263	      50.81177
       0.86508	      54.01611	      56.91528	      49.13330	      61.95068
       0.87818	      53.55835	      53.17688	      57.67822	      58.05969
       0.89129	      51.72729	      59.73816	      57.67822	      52.94800
       0.90440	      53.17688	      60.88257	      52.94800	      53.02429
       0.91750	      60.72998	      50.88806	      58.82263	      60.42480
       0.93061	      52.56653	      59.43298	      59.35669	      56.30493

Monitor Diode	      1.00
