ALV-7004/USB-FAST
Date :	"11/11/2025"
Time :	"3:58:33 PM"
Samplename : 	""
SampMemo(0) : 	""
SampMemo(1) : 	""
SampMemo(2) : 	""
SampMemo(3) : 	""
SampMemo(4) : 	""
SampMemo(5) : 	""
SampMemo(6) : 	""
SampMemo(7) : 	""
SampMemo(8) : 	""
SampMemo(9) : 	""
Temperature [K] :	     298.16000
Viscosity [cp]  :	       0.89000
Refractive Index:	       1.33200
Wavelength [nm] :	       0.00000
Angle [°]       :	       0.00000
Duration [s]    :	         1
FloatDur [ms]   :	          944
Stop TP [ms]   :	     68085
Runs            :	         1
Mode            :	"A-CH0+1  A-CH2+3 "
MeanCR0 [kHz]   :	      54.17082
MeanCR1 [kHz]   :	      55.97114
MeanCR2 [kHz]   :	      56.39818
MeanCR3 [kHz]   :	      54.42937

"Correlation"
  3.12500E-006	 -1.00000E+000	 -1.00000E+000	 -1.00000E+000	 -1.00000E+000
  6.25000E-006	 -1.00000E+000	 -1.00000E+000	 -1.00000E+000	 -1.00000E+000
  9.37500E-006	 -1.00000E+000	 -1.00000E+000	 -1.00000E+000	 -1.00000E+000
  1.25000E-005	 -1.00000E+000	 -1.00000E+000	 -1.00000E+000	 -1.00000E+000
  1.56250E-005	 -1.00000E+000	 -1.00000E+000	 -1.00000E+000	 -1.00000E+000
  1.87500E-005	 -1.00000E+000	 -1.00000E+000	 -1.00000E+000	 -1.00000E+000
  2.18750E-005	 -1.00000E+000	  9.48281E-001	  3.85864E-001	 -4.27717E-001
  2.50000E-005	  1.21729E+001	  1.46945E+001	  1.22190E+001	  2.78431E+001
  2.81250E-005	  3.27542E+000	  1.70595E+000	  2.62457E+000	  8.95773E+000
  3.12500E-005	  1.42659E+000	  2.03066E+000	  8.12284E-001	  5.52403E+000
  3.43750E-005	  1.88879E+000	  1.27299E+000	  1.02549E+000	  5.52403E+000
  3.75000E-005	  1.54214E+000	  7.31806E-001	  1.13210E+000	  2.89152E+000
  4.06250E-005	  1.42659E+000	  9.48281E-001	  1.45191E+000	  2.89152E+000
  4.37500E-005	  1.19548E+000	  4.07092E-001	  1.45191E+000	  2.54815E+000
  4.68750E-005	  1.42659E+000	  1.05652E+000	  9.18889E-001	  2.89152E+000
  5.00000E-005	  1.07993E+000	  5.69449E-001	  1.02549E+000	  1.91864E+000
  5.62500E-005	  7.33277E-001	  1.00240E+000	  1.02549E+000	  1.91864E+000
  6.25000E-005	  7.33277E-001	  8.94162E-001	  6.52377E-001	  1.46082E+000
  6.87500E-005	  2.71070E-001	  8.40043E-001	  3.85864E-001	  1.23190E+000
  7.50000E-005	  7.91053E-001	  1.90616E-001	  7.05679E-001	  1.23190E+000
  8.12500E-005	  2.71070E-001	  2.98854E-001	  8.65586E-001	  9.45762E-001
  8.75000E-005	  1.55518E-001	  9.48281E-001	  1.45191E+000	  1.68973E+000
  9.37500E-005	  8.48829E-001	  2.98854E-001	  5.99074E-001	  7.74077E-001
  1.00000E-004	  4.73285E-001	  2.98854E-001	  5.72423E-001	  1.23190E+000
  1.12500E-004	  7.04389E-001	  5.15330E-001	  8.38935E-001	  1.17468E+000
  1.25000E-004	  7.62165E-001	  4.07092E-001	  3.85864E-001	  4.87936E-001
  1.37500E-004	  7.33277E-001	  3.52973E-001	  5.99074E-001	  7.16849E-001
  1.50000E-004	  5.59949E-001	  6.77686E-001	  5.19120E-001	  4.02093E-001
  1.62500E-004	  5.02173E-001	  2.44735E-001	  2.52608E-001	  5.45164E-001
  1.75000E-004	  5.02173E-001	  5.15330E-001	  6.25725E-001	  4.30707E-001
  1.87500E-004	  9.64380E-001	  2.98854E-001	  1.46003E-001	  6.88235E-001
  2.00000E-004	  8.34384E-001	  3.39443E-001	  3.85864E-001	  8.16998E-001
  2.25000E-004	  6.89944E-001	  5.69448E-001	  8.25609E-001	  5.16550E-001
  2.50000E-004	  4.73285E-001	  5.28859E-001	  4.92469E-001	  5.30857E-001
  2.75000E-004	  6.75500E-001	  6.64156E-001	  4.25841E-001	  5.02242E-001
  3.00000E-004	  4.15509E-001	  5.69448E-001	  3.32561E-001	  6.73927E-001
  3.25000E-004	  4.01065E-001	  4.34151E-001	  4.79143E-001	  5.59471E-001
  3.50000E-004	  7.47720E-001	  6.91216E-001	  5.72422E-001	  4.16400E-001
  3.75000E-004	  4.29953E-001	  3.80032E-001	  5.99074E-001	  5.45164E-001
  4.00000E-004	  5.52726E-001	  6.43861E-001	  5.05794E-001	  4.45014E-001
  4.50000E-004	  5.67170E-001	  3.52972E-001	  6.25724E-001	  3.52018E-001
  5.00000E-004	  4.58840E-001	  4.88269E-001	  5.05794E-001	  5.02242E-001
  5.50000E-004	  3.36067E-001	  3.66502E-001	  5.45771E-001	  5.66624E-001
  6.00000E-004	  5.81614E-001	  4.67975E-001	  4.05852E-001	  5.73777E-001
  6.50000E-004	  4.58840E-001	  3.86796E-001	  4.79142E-001	  5.23702E-001
  7.00000E-004	  2.85513E-001	  5.62683E-001	  6.19061E-001	  4.37860E-001
  7.50000E-004	  6.03280E-001	  4.61210E-001	  5.99073E-001	  4.87935E-001
  8.00000E-004	  6.03279E-001	  4.91679E-001	  6.79025E-001	  4.41436E-001
  9.00000E-004	  5.13004E-001	  4.98444E-001	  5.65758E-001	  4.59319E-001
  1.00000E-003	  4.73283E-001	  6.60803E-001	  6.62368E-001	  5.59469E-001
  1.10000E-003	  5.34670E-001	  4.47706E-001	  5.12455E-001	  4.73626E-001
  1.20000E-003	  4.04674E-001	  4.44324E-001	  5.75752E-001	  5.38008E-001
  1.30000E-003	  4.11896E-001	  4.98444E-001	  7.12339E-001	  5.45162E-001
  1.40000E-003	  4.87727E-001	  4.20646E-001	  4.55821E-001	  4.27129E-001
  1.50000E-003	  5.85224E-001	  4.07116E-001	  4.49159E-001	  3.98514E-001
  1.60000E-003	  4.62448E-001	  4.73100E-001	  4.07514E-001	  4.80777E-001
  1.80000E-003	  5.00363E-001	  5.18765E-001	  5.34107E-001	  4.11031E-001
  2.00000E-003	  5.68972E-001	  4.07114E-001	  5.27444E-001	  4.39645E-001
  2.20000E-003	  4.57031E-001	  3.54685E-001	  4.35831E-001	  3.98512E-001
  2.40000E-003	  4.75086E-001	  4.37556E-001	  4.99127E-001	  4.66470E-001
  2.60000E-003	  4.49809E-001	  3.78363E-001	  5.20781E-001	  5.52313E-001
  2.80000E-003	  3.61340E-001	  4.54469E-001	  4.22505E-001	  4.82566E-001
  3.00000E-003	  4.20921E-001	  3.71598E-001	  4.44159E-001	  3.82417E-001
  3.20000E-003	  4.87719E-001	  3.55552E-001	  4.52510E-001	  4.12814E-001
  3.60000E-003	  4.51610E-001	  4.62948E-001	  4.92487E-001	  4.46793E-001
  4.00000E-003	  4.44388E-001	  3.99525E-001	  4.15031E-001	  4.64677E-001
  4.40000E-003	  4.29944E-001	  4.16438E-001	  4.74164E-001	  4.02084E-001
  4.80000E-003	  4.18208E-001	  4.04599E-001	  4.61671E-001	  4.09238E-001
  5.20000E-003	  4.10986E-001	  4.10492E-001	  4.86657E-001	  3.89565E-001
  5.60000E-003	  4.21819E-001	  3.29312E-001	  4.45014E-001	  4.45899E-001
  6.00000E-003	  4.19111E-001	  4.20639E-001	  4.41683E-001	  4.03872E-001
  6.40000E-003	  4.11879E-001	  4.68857E-001	  4.27541E-001	  4.09703E-001
  7.20000E-003	  4.14136E-001	  4.09663E-001	  4.30873E-001	  3.50685E-001
  8.00000E-003	  4.22712E-001	  3.83449E-001	  4.43366E-001	  3.86006E-001
  8.80000E-003	  3.74416E-001	  4.04167E-001	  3.91311E-001	  3.79747E-001
  9.60000E-003	  4.10074E-001	  3.91059E-001	  3.86704E-001	  4.12385E-001
  1.04000E-002	  3.63583E-001	  3.79221E-001	  4.41673E-001	  3.79747E-001
  1.12000E-002	  3.80735E-001	  3.60194E-001	  3.52141E-001	  4.10597E-001
  1.20000E-002	  3.17544E-001	  3.90187E-001	  4.02112E-001	  3.58286E-001
  1.28000E-002	  3.64919E-001	  3.71855E-001	  3.75885E-001	  3.80676E-001
  1.44000E-002	  3.64945E-001	  3.55787E-001	  3.80673E-001	  3.68381E-001
  1.60000E-002	  3.56369E-001	  3.30206E-001	  3.48400E-001	  3.54520E-001
  1.76000E-002	  3.11458E-001	  3.12659E-001	  3.40097E-001	  3.25011E-001
  1.92000E-002	  3.29738E-001	  3.09488E-001	  3.04283E-001	  3.31915E-001
  2.08000E-002	  3.35832E-001	  3.13716E-001	  3.29269E-001	  3.23420E-001
  2.24000E-002	  2.96563E-001	  3.01243E-001	  3.03218E-001	  3.30574E-001
  2.40000E-002	  3.17100E-001	  3.11179E-001	  3.09464E-001	  3.20514E-001
  2.56000E-002	  2.95424E-001	  2.87295E-001	  3.20642E-001	  3.04459E-001
  2.88000E-002	  2.87751E-001	  2.53947E-001	  2.94302E-001	  2.92362E-001
  3.20000E-002	  2.83689E-001	  2.43799E-001	  2.74313E-001	  2.65983E-001
  3.52000E-002	  2.36747E-001	  2.34602E-001	  2.71942E-001	  2.43963E-001
  3.84000E-002	  2.63603E-001	  2.14623E-001	  2.44376E-001	  2.41504E-001
  4.16000E-002	  2.41599E-001	  2.05215E-001	  2.13060E-001	  2.36697E-001
  4.48000E-002	  2.29525E-001	  1.85235E-001	  2.15871E-001	  2.22813E-001
  4.80000E-002	  2.10567E-001	  1.90521E-001	  2.33548E-001	  2.01911E-001
  5.12000E-002	  2.17094E-001	  1.69959E-001	  2.05091E-001	  2.10067E-001
  5.76000E-002	  1.84111E-001	  1.38294E-001	  1.76510E-001	  1.56804E-001
  6.40000E-002	  1.70819E-001	  1.43338E-001	  1.49439E-001	  1.59509E-001
  7.04000E-002	  1.43341E-001	  1.20564E-001	  1.32394E-001	  1.27764E-001
  7.68000E-002	  1.35758E-001	  1.12117E-001	  1.24824E-001	  1.30502E-001
  8.32000E-002	  1.12061E-001	  9.41033E-002	  1.15818E-001	  1.16250E-001
  8.96000E-002	  1.13810E-001	  1.05753E-001	  1.03480E-001	  1.04031E-001
  9.60000E-002	  8.04091E-002	  7.54120E-002	  9.37451E-002	  9.62411E-002
  1.02400E-001	  8.20831E-002	  6.64623E-002	  9.27085E-002	  8.28717E-002
  1.15200E-001	  7.46990E-002	  5.36541E-002	  7.47483E-002	  6.10169E-002
  1.28000E-001	  5.70883E-002	  4.90016E-002	  6.28330E-002	  5.78942E-002
  1.40800E-001	  4.68964E-002	  3.43765E-002	  4.78468E-002	  5.73073E-002
  1.53600E-001	  4.72555E-002	  3.03180E-002	  4.85819E-002	  4.51505E-002
  1.66400E-001	  2.66082E-002	  1.86069E-002	  5.04038E-002	  4.06511E-002
  1.79200E-001	  2.22433E-002	  2.08946E-002	  4.03440E-002	  2.06772E-002
  1.92000E-001	  2.05822E-002	  5.02194E-003	  3.66482E-002	  1.36628E-002
  2.04800E-001	  1.68458E-002	  8.53193E-003	  2.68115E-002	  1.23586E-002
  2.30400E-001	  1.14109E-002	  5.64671E-003	  2.53279E-002	  7.11800E-003
  2.56000E-001	  9.35645E-003	  8.93739E-003	  2.55684E-002	  3.67176E-003
  2.81600E-001	  2.50742E-003	  5.51874E-003	  1.95427E-002	  5.11121E-003
  3.07200E-001	  1.22295E-002	 -8.62341E-003	  1.08610E-002	  8.13817E-003
  3.32800E-001	  1.69613E-003	 -1.53436E-003	  1.11864E-002	  1.28362E-002
  3.58400E-001	  8.59718E-003	 -9.77714E-003	  1.68683E-003	  1.43300E-002
  3.84000E-001	  9.28577E-004	 -3.42692E-003	  7.46526E-003	  7.09862E-003
  4.09600E-001	  7.83500E-004	 -1.10637E-003	  5.08202E-003	  1.26621E-002
  4.60800E-001	 -2.10163E-004	  2.19193E-003	  2.92731E-003	  1.21855E-002
  5.12000E-001	  5.67623E-003	  8.31196E-005	  7.63856E-003	  6.26284E-004
  5.63200E-001	  5.10893E-003	 -9.67049E-003	  8.89066E-004	  3.13846E-003
  6.14400E-001	  7.09021E-004	 -6.77848E-003	 -1.53236E-004	 -5.92131E-003
  6.65600E-001	 -3.30011E-003	  6.08206E-004	  2.95200E-003	  1.50935E-003
  7.16800E-001	 -6.86111E-003	  6.35411E-003	  1.68116E-003	 -7.23995E-003
  7.68000E-001	 -8.82325E-003	  6.15880E-003	 -6.43307E-003	  3.01930E-003
  8.19200E-001	 -1.26493E-003	  2.58708E-003	 -1.10853E-003	 -3.20559E-003
  9.21600E-001	  3.01056E-003	  1.43631E-003	 -2.77570E-003	 -8.30223E-003
  1.02400E+000	  1.92776E-003	  1.00440E-003	 -1.17140E-002	  5.47171E-003
  1.12640E+000	 -2.65661E-003	  6.69383E-003	 -2.40131E-003	  2.24391E-003
  1.22880E+000	  9.54024E-004	  3.77420E-003	  3.81749E-003	 -2.62035E-003
  1.33120E+000	  6.51176E-003	  1.44942E-003	  8.98292E-003	 -2.72842E-003
  1.43360E+000	  5.54065E-003	 -5.10693E-003	  4.41631E-003	  1.88142E-003
  1.53600E+000	  1.13365E-002	 -3.48934E-003	 -2.40024E-003	 -4.49799E-003
  1.63840E+000	  6.06873E-003	  2.75816E-003	 -2.78690E-003	 -4.64545E-004
  1.84320E+000	  1.01860E-003	  3.23473E-004	 -1.36466E-003	 -8.59049E-003
  2.04800E+000	 -1.92395E-003	 -1.29219E-003	 -5.99012E-003	 -8.57831E-003
  2.25280E+000	 -2.74186E-003	  4.21660E-003	 -7.96148E-003	  1.11882E-003
  2.45760E+000	  2.18546E-003	  3.72871E-003	 -8.21799E-004	  2.40712E-003
  2.66240E+000	  6.56259E-003	  5.06644E-003	  8.26105E-003	 -7.50409E-004
  2.86720E+000	  4.13060E-003	  7.27692E-004	  1.81250E-003	  1.02511E-003
  3.07200E+000	 -4.89286E-004	 -1.62292E-003	 -4.34791E-003	 -2.45984E-003
  3.27680E+000	 -8.77209E-003	  8.16678E-004	 -5.71592E-003	  4.62950E-003
  3.68640E+000	 -2.64039E-003	  2.66620E-003	 -5.43496E-004	 -4.02371E-003
  4.09600E+000	 -1.26598E-003	  4.65229E-003	  6.11984E-003	 -1.11797E-004
  4.50560E+000	 -1.09188E-003	  1.45827E-003	 -1.36534E-004	 -2.76783E-003
  4.91520E+000	 -6.98667E-003	  4.88554E-003	  3.00500E-003	  4.00129E-003
  5.32480E+000	 -6.49356E-004	 -5.49128E-003	  1.73572E-003	 -1.52393E-003
  5.73440E+000	 -2.52742E-003	  2.96487E-003	  1.17209E-003	 -3.09636E-003
  6.14400E+000	  2.92745E-003	  1.27376E-003	 -5.36982E-003	 -2.39383E-003
  6.55360E+000	  4.42944E-004	 -1.99061E-003	 -4.94436E-003	 -8.28960E-004
  7.37280E+000	 -4.48596E-003	  1.45158E-004	 -9.85615E-004	 -1.19804E-004
  8.19200E+000	 -2.30966E-003	 -2.65119E-003	 -2.59522E-003	 -3.07206E-005
  9.01120E+000	  2.85278E-003	 -1.59077E-003	  1.36949E-003	 -2.04022E-003
  9.83040E+000	  1.06117E-003	 -3.96650E-003	 -4.08201E-004	 -1.92685E-003
  1.06496E+001	 -1.00342E-003	 -3.30020E-004	 -4.70764E-004	  5.38273E-003
  1.14688E+001	 -1.30785E-003	 -3.45777E-003	  2.81634E-003	  3.10787E-003
  1.22880E+001	  1.04271E-003	  1.15106E-003	 -1.67586E-003	  1.36270E-003
  1.31072E+001	  3.89017E-004	 -2.16366E-003	 -4.56910E-005	  3.06307E-003
  1.47456E+001	  5.15045E-004	 -5.15149E-004	  2.98224E-003	 -2.51794E-003
  1.63840E+001	  1.00341E-003	 -9.58088E-004	  1.73183E-003	 -1.33623E-003
  1.80224E+001	  1.24802E-003	  1.38306E-003	 -1.33200E-003	 -1.89390E-003
  1.96608E+001	 -2.16357E-003	  5.19371E-004	 -4.46053E-004	 -2.19469E-003
  2.12992E+001	 -1.48931E-003	 -1.37603E-003	  2.36060E-003	  1.60784E-003
  2.29376E+001	 -2.71044E-003	  9.55868E-004	 -1.50646E-003	 -3.27492E-004
  2.45760E+001	 -1.04553E-003	 -1.89677E-003	 -7.06306E-004	 -6.31314E-004
  2.62144E+001	  5.42370E-004	 -4.96360E-004	 -8.75241E-004	 -5.09381E-004
  2.94912E+001	  1.13383E-003	 -6.63285E-004	  1.71513E-003	 -1.00560E-003
  3.27680E+001	  1.31443E-003	 -1.20690E-003	  4.37910E-004	  2.07197E-003
  3.60448E+001	 -2.78638E-003	 -4.30719E-004	 -2.86399E-003	  1.13918E-003
  3.93216E+001	  1.08073E-003	 -6.62397E-004	 -2.08483E-003	  5.12957E-004
  4.25984E+001	  5.05821E-005	  1.61539E-003	  1.73457E-003	 -2.13578E-003
  4.58752E+001	 -8.97565E-004	  4.11904E-004	 -4.95965E-005	 -1.75684E-003
  4.91520E+001	  1.69452E-003	  7.57130E-004	  1.08078E-003	 -6.34076E-004
  5.24288E+001	  2.60724E-004	  7.03674E-004	 -1.18082E-003	 -9.10514E-004
  5.89824E+001	  1.75506E-003	 -8.23192E-005	  5.62628E-004	 -1.43090E-003
  6.55360E+001	 -1.12198E-003	 -8.24043E-004	 -2.65476E-005	  9.99716E-004
  7.20896E+001	 -2.32231E-004	 -9.25603E-004	 -4.26084E-004	 -4.10348E-004
  7.86432E+001	  8.07716E-005	  2.36015E-004	 -1.56515E-003	  1.02895E-003
  8.51968E+001	  2.39738E-004	  8.94762E-004	 -1.87293E-003	  7.85489E-007
  9.17504E+001	  6.26521E-004	  1.23845E-003	 -1.66516E-003	 -5.76158E-004
  9.83040E+001	 -1.18756E-003	 -2.91780E-004	 -1.70928E-003	 -3.32770E-004
  1.04858E+002	 -6.67962E-004	  1.31187E-003	  9.91284E-004	 -7.80933E-004
  1.17965E+002	  5.87354E-004	  1.32535E-004	  6.42445E-004	  1.03200E-003
  1.31072E+002	  2.43914E-004	  1.86921E-004	  9.58112E-004	 -7.82125E-004
  1.44179E+002	  7.70029E-004	 -1.83699E-003	 -1.33586E-003	 -3.55154E-004
  1.57286E+002	 -7.67637E-005	  3.08565E-004	  5.80936E-004	 -4.07786E-004
  1.70394E+002	 -1.87756E-004	  1.30582E-003	  5.50893E-005	 -4.55039E-005
  1.83501E+002	 -1.88429E-003	 -2.97731E-004	  8.93301E-005	 -1.83783E-004
  1.96608E+002	  7.56436E-005	  2.54899E-004	 -1.00968E-003	  8.79809E-006
  2.09715E+002	 -7.13465E-004	  1.12614E-003	 -8.69883E-004	  6.68049E-004
  2.35930E+002	 -6.39741E-004	 -1.17176E-003	  3.79460E-004	  7.41468E-005
  2.62144E+002	  2.05297E-004	  4.51818E-004	 -9.44124E-004	  3.20660E-004
  2.88358E+002	  1.52410E-003	  1.38917E-004	  1.24126E-004	  1.87196E-004
  3.14573E+002	 -7.14661E-004	  4.80809E-004	  7.58591E-005	 -1.81650E-004
  3.40787E+002	 -8.07918E-004	 -6.98866E-004	  9.34171E-004	 -6.38436E-004
  3.67002E+002	  1.06694E-004	  5.61348E-004	  6.68163E-004	  9.99134E-004
  3.93216E+002	 -1.90437E-004	 -8.59398E-005	  1.59097E-004	 -6.93066E-004

"Count Rate"
       0.01311	      45.24231	      55.61829	      48.14148	      58.59375
       0.02621	      60.50110	      53.63464	      60.50110	      57.98340
       0.03932	      48.06519	      52.03247	      58.44116	      49.51477
       0.05243	      51.49841	      54.55017	      54.39758	      55.54199
       0.06554	      56.38123	      57.67822	      53.55835	      59.89075
       0.07864	      56.45752	      55.31311	      53.93982	      51.34583
       0.09175	      57.98340	      52.71912	      52.26135	      49.13330
       0.10486	      49.13330	      54.39758	      64.08691	      51.57471
       0.11796	      53.71094	      61.79810	      55.77087	      51.11694
       0.13107	      54.62646	      51.49841	      59.05151	      52.64282
       0.14418	      57.29675	      56.99158	      56.83899	      57.52563
       0.15729	      53.17688	      53.78723	      54.85535	      49.20959
       0.17039	      53.71094	      55.31311	      51.95618	      56.38123
       0.18350	      52.26135	      52.79541	      56.83899	      47.76001
       0.19661	      58.36487	      53.32947	      50.20142	      52.49023
       0.20972	      54.85535	      51.26953	      60.34851	      52.03247
       0.22282	      52.41394	      61.56921	      50.88806	      47.83630
       0.23593	      51.26953	      48.37036	      49.59106	      56.30493
       0.24904	      45.24231	      53.78723	      59.05151	      54.39758
       0.26214	      49.13330	      51.57471	      58.13599	      49.13330
       0.27525	      51.49841	      52.64282	      47.22595	      55.92346
       0.28836	      54.09241	      61.11145	      55.00793	      60.04333
       0.30147	      54.32129	      49.66736	      52.10876	      49.36218
       0.31457	      60.04333	      50.96436	      62.02698	      58.28857
       0.32768	      53.86353	      55.54199	      49.13330	      62.63733
       0.34079	      50.88806	      50.65918	      58.21228	      49.43848
       0.35389	      53.63464	      53.10059	      54.85535	      54.39758
       0.36700	      52.33765	      52.64282	      53.78723	      50.43030
       0.38011	      52.41394	      56.76270	      54.01611	      50.35400
       0.39322	      46.23413	      60.34851	      52.94800	      55.99976
       0.40632	      56.61011	      51.72729	      51.95618	      55.99976
       0.41943	      47.30225	      53.71094	      55.31311	      50.88806
       0.43254	      61.26404	      53.17688	      53.32947	      53.32947
       0.44564	      52.26135	      60.95886	      63.62915	      57.44934
       0.45875	      51.11694	      57.98340	      51.11694	      51.95618
       0.47186	      52.41394	      53.40576	      59.81445	      47.91260
       0.48497	      51.80359	      67.36755	      59.43298	      52.18506
       0.49807	      55.16052	      49.74365	      61.26404	      46.46301
       0.51118	      50.73547	      49.74365	      59.35669	      55.84717
       0.52429	      49.36218	      56.68640	      52.03247	      57.52563
       0.53740	      47.76001	      56.76270	      57.14417	      56.07605
       0.55050	      46.92078	      58.89893	      56.15234	      52.79541
       0.56361	      50.96436	      56.83899	      62.02698	      52.87170
       0.57672	      57.14417	      59.20410	      56.76270	      50.35400
       0.58982	      56.53381	      52.03247	      52.10876	      59.12781
       0.60293	      55.46570	      60.11963	      51.87988	      51.87988
       0.61604	      42.19055	      53.48206	      54.47388	      50.96436
       0.62915	      57.22046	      49.13330	      49.81995	      57.29675
       0.64225	      52.18506	      59.43298	      53.48206	      55.99976
       0.65536	      53.32947	      64.92615	      58.13599	      55.69458
       0.66847	      47.07336	      58.28857	      68.58826	      49.36218
       0.68157	      52.49023	      50.12512	      57.90710	      48.29407
       0.69468	      58.13599	      52.87170	      50.88806	      50.81177
       0.70779	      53.48206	      57.44934	      54.85535	      55.99976
       0.72090	      57.75452	      53.71094	      54.77905	      54.55017
       0.73400	      55.00793	      55.31311	      48.37036	      54.85535
       0.74711	      56.45752	      57.75452	      48.52295	      54.01611
       0.76022	      57.14417	      57.44934	      51.57471	      58.74634
       0.77332	      54.85535	      57.44934	      54.24500	      54.55017
       0.78643	      57.44934	      62.94250	      67.67273	      53.32947
       0.79954	      55.31311	      50.43030	      58.28857	      66.83350
       0.81265	      53.02429	      60.80627	      53.25317	      51.80359
       0.82575	      54.32129	      53.10059	      62.71362	      56.83899
       0.83886	      55.16052	      58.44116	      59.58557	      45.54749
       0.85197	      58.82263	      50.73547	      58.28857	      49.20959
       0.86508	      53.32947	      52.49023	      56.38123	      55.61829
       0.87818	      53.55835	      50.81177	      46.23413	      57.67822
       0.89129	      54.09241	      52.94800	      61.11145	      51.04065
       0.90440	      56.45752	      57.44934	      55.84717	      52.79541
       0.91750	      51.65100	      59.50928	      58.44116	      53.78723
       0.93061	      50.65918	      51.80359	      49.97253	      52.87170

Monitor Diode	      1.00
