ALV-7004/USB-FAST
Date :	"11/11/2025"
Time :	"3:54:08 PM"
Samplename : 	""
SampMemo(0) : 	""
SampMemo(1) : 	""
SampMemo(2) : 	""
SampMemo(3) : 	""
SampMemo(4) : 	""
SampMemo(5) : 	""
SampMemo(6) : 	""
SampMemo(7) : 	""
SampMemo(8) : 	""
SampMemo(9) : 	""
Temperature [K] :	     298.16000
Viscosity [cp]  :	       0.89000
Refractive Index:	       1.33200
Wavelength [nm] :	       0.00000
Angle [°]       :	       0.00000
Duration [s]    :	         1
FloatDur [ms]   :	          944
Stop TP [ms]   :	     59460
Runs            :	         1
Mode            :	"A-CH0+1  A-CH2+3 "
MeanCR0 [kHz]   :	      53.71412
MeanCR1 [kHz]   :	      53.61133
MeanCR2 [kHz]   :	      55.62888
MeanCR3 [kHz]   :	      54.01293

"Correlation"
  3.12500E-006	 -1.00000E+000	 -1.00000E+000	 -1.00000E+000	 -1.00000E+000
  6.25000E-006	 -1.00000E+000	 -1.00000E+000	 -1.00000E+000	 -1.00000E+000
  9.37500E-006	 -1.00000E+000	 -1.00000E+000	 -1.00000E+000	 -1.00000E+000
  1.25000E-005	 -1.00000E+000	 -1.00000E+000	 -1.00000E+000	 -1.00000E+000
  1.56250E-005	 -1.00000E+000	 -1.00000E+000	 -1.00000E+000	 -1.00000E+000
  1.87500E-005	 -1.00000E+000	 -1.00000E+000	 -1.00000E+000	 -1.00000E+000
  2.18750E-005	 -1.00000E+000	  1.00560E+000	  2.50636E+000	 -5.35087E-001
  2.50000E-005	  1.31030E+001	  1.28032E+001	  1.19297E+001	  2.57325E+001
  2.81250E-005	  3.46595E+000	  1.71345E+000	  9.72329E-001	  8.53072E+000
  3.12500E-005	  6.45352E-001	  1.35952E+000	  1.41062E+000	  5.50879E+000
  3.43750E-005	  1.11545E+000	  1.47750E+000	  1.19148E+000	  4.69519E+000
  3.75000E-005	  7.62877E-001	  1.24155E+000	  3.14886E-001	  3.64913E+000
  4.06250E-005	  9.97927E-001	  1.12357E+000	  2.05312E-001	  3.99782E+000
  4.37500E-005	  1.93813E+000	  1.12357E+000	  7.53181E-001	  3.99782E+000
  4.68750E-005	  9.97927E-001	  7.69643E-001	  1.41062E+000	  1.90571E+000
  5.00000E-005	  7.62877E-001	  8.28631E-001	  9.72329E-001	  1.84759E+000
  5.62500E-005	  5.86589E-001	  5.33690E-001	  9.17542E-001	  1.49891E+000
  6.25000E-005	  7.62877E-001	  9.46607E-001	  6.43607E-001	  1.44079E+000
  6.87500E-005	  6.45351E-001	  6.51666E-001	  6.98394E-001	  5.10968E-001
  7.50000E-005	  6.45351E-001	  5.92678E-001	  3.14886E-001	  1.32457E+000
  8.12500E-005	  2.92776E-001	  2.97738E-001	  5.34034E-001	  1.03400E+000
  8.75000E-005	  1.75251E-001	  7.10655E-001	  2.60099E-001	  8.59653E-001
  9.37500E-005	  2.92776E-001	  8.28631E-001	  4.79247E-001	  1.38268E+000
  1.00000E-004	  4.39682E-001	  1.00559E+000	  4.24460E-001	  1.17928E+000
  1.12500E-004	  2.83445E-002	  3.56726E-001	  6.98394E-001	  8.59653E-001
  1.25000E-004	  5.27826E-001	  7.10654E-001	  8.90148E-001	  7.72482E-001
  1.37500E-004	  7.62876E-001	  3.27232E-001	  3.97066E-001	  7.72482E-001
  1.50000E-004	  4.39682E-001	  3.56726E-001	  3.69673E-001	  6.85310E-001
  1.62500E-004	  6.45351E-001	  3.86220E-001	  3.69673E-001	  1.00494E+000
  1.75000E-004	  7.62876E-001	  5.33690E-001	  7.53181E-001	  7.14368E-001
  1.87500E-004	  8.21639E-001	  8.58125E-001	  6.43607E-001	  5.98139E-001
  2.00000E-004	  8.06948E-001	  7.84389E-001	  6.98394E-001	  6.99839E-001
  2.25000E-004	  8.06948E-001	  7.40148E-001	  3.97066E-001	  6.41725E-001
  2.50000E-004	  6.74732E-001	  4.74702E-001	  6.71000E-001	  4.38325E-001
  2.75000E-004	  5.86588E-001	  3.12485E-001	  3.01189E-001	  4.67382E-001
  3.00000E-004	  5.27826E-001	  5.48437E-001	  3.01189E-001	  6.85310E-001
  3.25000E-004	  6.15970E-001	  7.40148E-001	  6.29910E-001	  5.10968E-001
  3.50000E-004	  2.63394E-001	  6.22172E-001	  6.98394E-001	  2.20397E-001
  3.75000E-004	  6.15970E-001	  5.63184E-001	  5.34033E-001	  4.09268E-001
  4.00000E-004	  5.71897E-001	  5.48436E-001	  6.29910E-001	  4.09267E-001
  4.50000E-004	  5.42516E-001	  5.63183E-001	  3.83369E-001	  5.18231E-001
  5.00000E-004	  3.88264E-001	  4.08340E-001	  6.36758E-001	  5.47288E-001
  5.50000E-004	  3.80919E-001	  5.18942E-001	  4.17610E-001	  4.60117E-001
  6.00000E-004	  3.80919E-001	  8.58123E-001	  3.90217E-001	  3.87475E-001
  6.50000E-004	  4.83753E-001	  6.29545E-001	  6.16213E-001	  4.38324E-001
  7.00000E-004	  4.76408E-001	  4.67328E-001	  4.10762E-001	  5.10967E-001
  7.50000E-004	  4.47027E-001	  5.04195E-001	  3.55975E-001	  4.81910E-001
  8.00000E-004	  3.58882E-001	  5.18941E-001	  5.27241E-001	  5.50919E-001
  9.00000E-004	  3.77245E-001	  4.04652E-001	  6.43667E-001	  6.48987E-001
  1.00000E-003	  5.09461E-001	  4.59953E-001	  4.34785E-001	  4.74644E-001
  1.10000E-003	  4.87425E-001	  4.74700E-001	  3.76571E-001	  5.07334E-001
  1.20000E-003	  4.83752E-001	  4.82073E-001	  5.27241E-001	  5.36391E-001
  1.30000E-003	  4.61716E-001	  3.86218E-001	  3.93693E-001	  4.71012E-001
  1.40000E-003	  3.66227E-001	  4.08338E-001	  4.65603E-001	  4.89173E-001
  1.50000E-003	  5.46187E-001	  5.07881E-001	  3.76571E-001	  6.67147E-001
  1.60000E-003	  3.35007E-001	  4.41517E-001	  4.57096E-001	  4.71039E-001
  1.80000E-003	  4.87422E-001	  3.71469E-001	  4.89628E-001	  4.78303E-001
  2.00000E-003	  3.69897E-001	  4.94974E-001	  4.94764E-001	  4.85568E-001
  2.20000E-003	  3.77243E-001	  4.85758E-001	  4.57068E-001	  4.87384E-001
  2.40000E-003	  3.84588E-001	  5.06035E-001	  4.92995E-001	  4.65590E-001
  2.60000E-003	  4.01115E-001	  4.26770E-001	  4.82722E-001	  4.45613E-001
  2.80000E-003	  3.93770E-001	  4.61794E-001	  4.38207E-001	  5.27338E-001
  3.00000E-003	  4.26823E-001	  4.41517E-001	  5.18678E-001	  5.47315E-001
  3.20000E-003	  3.88256E-001	  5.32758E-001	  4.14286E-001	  4.91948E-001
  3.60000E-003	  4.34164E-001	  4.88518E-001	  4.82774E-001	  5.20098E-001
  4.00000E-003	  4.16719E-001	  5.18011E-001	  5.04177E-001	  5.47340E-001
  4.40000E-003	  4.24092E-001	  4.94969E-001	  4.48530E-001	  5.12833E-001
  4.80000E-003	  3.80020E-001	  5.11560E-001	  5.05889E-001	  5.12804E-001
  5.20000E-003	  4.31438E-001	  4.57180E-001	  4.71645E-001	  5.80907E-001
  5.60000E-003	  4.13992E-001	  4.82988E-001	  5.18673E-001	  5.17344E-001
  6.00000E-003	  4.34192E-001	  5.61331E-001	  4.94702E-001	  4.41976E-001
  6.40000E-003	  4.27783E-001	  5.28600E-001	  4.81908E-001	  4.90576E-001
  7.20000E-003	  3.86006E-001	  5.08324E-001	  4.87472E-001	  5.16001E-001
  8.00000E-003	  4.62675E-001	  5.00950E-001	  4.66498E-001	  5.04651E-001
  8.80000E-003	  4.31456E-001	  5.34131E-001	  4.97746E-001	  5.10553E-001
  9.60000E-003	  4.23652E-001	  5.06019E-001	  4.44239E-001	  4.90122E-001
  1.04000E-002	  4.16765E-001	  4.97263E-001	  4.93037E-001	  5.02835E-001
  1.12000E-002	  4.01156E-001	  4.59014E-001	  5.14868E-001	  5.19150E-001
  1.20000E-002	  4.05747E-001	  5.09245E-001	  5.09673E-001	  5.21874E-001
  1.28000E-002	  4.17463E-001	  5.23310E-001	  4.82744E-001	  4.68820E-001
  1.44000E-002	  3.91064E-001	  4.81403E-001	  4.55563E-001	  4.94700E-001
  1.60000E-002	  4.15856E-001	  4.54674E-001	  4.59201E-001	  4.94246E-001
  1.76000E-002	  4.16774E-001	  4.91542E-001	  4.58987E-001	  4.88117E-001
  1.92000E-002	  4.18123E-001	  4.67347E-001	  4.71829E-001	  5.12862E-001
  2.08000E-002	  3.88053E-001	  4.74490E-001	  4.90449E-001	  4.89252E-001
  2.24000E-002	  4.31896E-001	  4.67347E-001	  4.87452E-001	  4.97198E-001
  2.40000E-002	  4.29600E-001	  4.54472E-001	  4.90449E-001	  4.92401E-001
  2.56000E-002	  4.19720E-001	  4.62584E-001	  4.66601E-001	  4.89416E-001
  2.88000E-002	  4.07210E-001	  4.82605E-001	  4.64354E-001	  4.86465E-001
  3.20000E-002	  4.11112E-001	  4.81913E-001	  4.74413E-001	  4.94609E-001
  3.52000E-002	  4.06636E-001	  4.97555E-001	  4.86505E-001	  4.88450E-001
  3.84000E-002	  4.32115E-001	  4.86608E-001	  4.48944E-001	  4.75054E-001
  4.16000E-002	  3.98946E-001	  4.81769E-001	  4.78266E-001	  4.76644E-001
  4.48000E-002	  3.95820E-001	  4.87761E-001	  4.70989E-001	  4.70741E-001
  4.80000E-002	  4.04657E-001	  4.98275E-001	  4.55793E-001	  4.85952E-001
  5.12000E-002	  3.98207E-001	  4.70773E-001	  4.43465E-001	  4.85793E-001
  5.76000E-002	  4.01019E-001	  4.59913E-001	  4.46194E-001	  4.68934E-001
  6.40000E-002	  4.16570E-001	  4.69505E-001	  4.56065E-001	  4.86019E-001
  7.04000E-002	  3.94649E-001	  4.60287E-001	  4.49349E-001	  4.79264E-001
  7.68000E-002	  3.77204E-001	  4.59106E-001	  4.50472E-001	  4.70011E-001
  8.32000E-002	  3.77950E-001	  4.55649E-001	  4.53469E-001	  4.58857E-001
  8.96000E-002	  3.96830E-001	  4.40353E-001	  4.46406E-001	  4.53606E-001
  9.60000E-002	  3.76430E-001	  4.44501E-001	  4.43784E-001	  4.52017E-001
  1.02400E-001	  3.76516E-001	  4.40165E-001	  4.40424E-001	  4.47064E-001
  1.15200E-001	  3.82141E-001	  4.18904E-001	  4.31274E-001	  4.55495E-001
  1.28000E-001	  3.60132E-001	  4.02050E-001	  4.26699E-001	  4.25093E-001
  1.40800E-001	  3.48364E-001	  4.19394E-001	  4.30123E-001	  4.33239E-001
  1.53600E-001	  3.42569E-001	  4.05565E-001	  4.10619E-001	  4.28130E-001
  1.66400E-001	  3.26757E-001	  4.12365E-001	  4.03851E-001	  4.23135E-001
  1.79200E-001	  3.27933E-001	  3.88944E-001	  3.85285E-001	  4.19390E-001
  1.92000E-001	  3.30856E-001	  3.76268E-001	  3.82262E-001	  4.05767E-001
  2.04800E-001	  3.12886E-001	  3.66126E-001	  3.73418E-001	  3.92320E-001
  2.30400E-001	  2.93987E-001	  3.51026E-001	  3.67545E-001	  3.72475E-001
  2.56000E-001	  2.84026E-001	  3.28917E-001	  3.48870E-001	  3.51232E-001
  2.81600E-001	  2.63381E-001	  3.09743E-001	  3.18851E-001	  3.41610E-001
  3.07200E-001	  2.52981E-001	  2.93471E-001	  3.17287E-001	  3.16093E-001
  3.32800E-001	  2.34187E-001	  2.79178E-001	  2.94789E-001	  2.98578E-001
  3.58400E-001	  2.20702E-001	  2.64485E-001	  2.78109E-001	  2.93613E-001
  3.84000E-001	  1.96724E-001	  2.55700E-001	  2.78874E-001	  2.73574E-001
  4.09600E-001	  1.93366E-001	  2.42753E-001	  2.66393E-001	  2.61601E-001
  4.60800E-001	  1.72544E-001	  2.12566E-001	  2.44279E-001	  2.21528E-001
  5.12000E-001	  1.46423E-001	  1.89146E-001	  2.16476E-001	  2.02969E-001
  5.63200E-001	  1.31126E-001	  1.65738E-001	  1.94084E-001	  1.80641E-001
  6.14400E-001	  1.06563E-001	  1.54833E-001	  1.83368E-001	  1.65735E-001
  6.65600E-001	  9.74365E-002	  1.34754E-001	  1.68101E-001	  1.43988E-001
  7.16800E-001	  8.25660E-002	  1.13864E-001	  1.50711E-001	  1.32978E-001
  7.68000E-001	  7.17685E-002	  1.06421E-001	  1.41630E-001	  1.24091E-001
  8.19200E-001	  6.16294E-002	  9.57366E-002	  1.31482E-001	  1.15041E-001
  9.21600E-001	  5.71185E-002	  7.68664E-002	  1.00992E-001	  9.15856E-002
  1.02400E+000	  4.88138E-002	  6.60962E-002	  8.47315E-002	  7.66119E-002
  1.12640E+000	  3.83925E-002	  5.87121E-002	  7.05170E-002	  5.37974E-002
  1.22880E+000	  3.39398E-002	  5.20620E-002	  5.64144E-002	  4.39741E-002
  1.33120E+000	  3.39565E-002	  3.95916E-002	  5.00598E-002	  3.35568E-002
  1.43360E+000	  2.68230E-002	  3.40306E-002	  4.10940E-002	  2.61345E-002
  1.53600E+000	  2.51942E-002	  3.42498E-002	  3.55834E-002	  2.21136E-002
  1.63840E+000	  1.97141E-002	  3.71169E-002	  3.13773E-002	  1.74188E-002
  1.84320E+000	  1.38459E-002	  3.44973E-002	  2.32554E-002	  2.07554E-002
  2.04800E+000	  1.59589E-002	  2.59309E-002	  1.93643E-002	  1.74867E-002
  2.25280E+000	  2.37728E-002	  1.57939E-002	  1.29991E-002	  1.90544E-002
  2.45760E+000	  2.94846E-002	  1.70920E-002	  1.30317E-002	  2.04382E-002
  2.66240E+000	  2.10748E-002	  1.95039E-002	  9.74740E-003	  1.90153E-002
  2.86720E+000	  3.08368E-003	  1.22489E-002	  1.68708E-003	  2.29614E-002
  3.07200E+000	 -9.03964E-003	  9.43933E-003	 -2.70765E-003	  2.67827E-002
  3.27680E+000	 -8.67741E-003	  1.45013E-002	 -4.89703E-003	  2.81563E-002
  3.68640E+000	 -3.97286E-003	  1.36639E-002	 -7.94173E-003	  1.25266E-002
  4.09600E+000	  3.51004E-003	  1.06748E-002	 -1.06809E-002	  4.05506E-003
  4.50560E+000	  1.15540E-002	  7.35208E-003	 -3.23924E-003	  1.03277E-002
  4.91520E+000	  9.26103E-003	  9.41776E-003	 -3.48017E-003	  2.23068E-002
  5.32480E+000	 -1.23939E-003	  1.08160E-002	 -4.74942E-003	  4.23793E-002
  5.73440E+000	 -3.08877E-003	  6.44212E-003	 -8.98643E-003	  3.91762E-002
  6.14400E+000	  9.56560E-003	  6.72697E-003	 -1.19984E-002	  2.51951E-002
  6.55360E+000	  2.01458E-002	  1.46973E-002	 -7.53488E-003	  1.54087E-002
  7.37280E+000	  1.16136E-002	  2.11799E-002	  3.66998E-003	 -5.61513E-003
  8.19200E+000	  5.54094E-003	 -8.43748E-005	  1.12920E-003	 -1.64306E-002
  9.01120E+000	 -5.99684E-003	 -4.91650E-003	  2.53998E-003	 -1.89664E-002
  9.83040E+000	  3.55708E-003	  1.71212E-003	  2.27246E-004	 -1.64196E-002
  1.06496E+001	  7.59095E-003	 -2.39170E-004	 -4.45526E-003	 -1.12132E-002
  1.14688E+001	  8.83582E-003	 -8.44944E-004	 -1.18325E-002	  3.52742E-003
  1.22880E+001	  5.72115E-003	  6.07593E-003	 -2.45187E-002	  4.17223E-003
  1.31072E+001	 -2.75776E-003	  5.79432E-003	 -2.50078E-002	 -6.15957E-003
  1.47456E+001	  7.66707E-003	  5.54542E-003	 -9.10878E-003	 -1.07970E-002
  1.63840E+001	 -1.15651E-002	 -1.14681E-002	 -1.51072E-002	  6.13581E-003
  1.80224E+001	 -1.19156E-002	 -1.24289E-002	 -5.17851E-003	 -1.47588E-002
  1.96608E+001	 -1.45930E-002	  2.85004E-003	 -3.50369E-004	 -1.09265E-002
  2.12992E+001	 -6.73403E-003	  2.24608E-002	 -3.64911E-003	 -1.68530E-003
  2.29376E+001	 -5.66966E-004	  8.16769E-003	  1.58260E-003	 -2.23587E-002
  2.45760E+001	 -1.47815E-003	  6.78571E-004	  5.66378E-003	  5.73775E-003
  2.62144E+001	 -5.55806E-003	  1.68050E-002	  2.34544E-004	  1.04157E-002
  2.94912E+001	 -9.54022E-003	  8.27268E-003	 -4.07548E-003	 -2.37179E-003
  3.27680E+001	 -9.39858E-003	  4.99602E-004	 -2.39192E-002	  1.14408E-002
  3.60448E+001	 -8.78202E-003	 -1.40468E-004	 -3.17063E-003	 -1.17874E-002
  3.93216E+001	  6.63440E-003	 -1.31414E-002	  3.12084E-004	  1.00830E-002
  4.25984E+001	  5.01960E-003	 -6.92723E-003	  8.67820E-003	 -4.51672E-004
  4.58752E+001	  4.67694E-003	  4.43573E-004	 -9.18546E-004	  3.80690E-003
  4.91520E+001	  7.31290E-004	  1.27996E-003	 -6.35084E-003	 -6.59718E-003
  5.24288E+001	 -3.32911E-003	 -8.81431E-003	 -1.64337E-003	  1.39160E-003
  5.89824E+001	 -1.13105E-003	  1.19938E-003	 -6.14150E-003	 -1.34344E-002
  6.55360E+001	 -5.20040E-003	 -4.14907E-003	 -1.40304E-002	 -3.50469E-003
  7.20896E+001	 -5.65412E-004	  1.50749E-003	 -9.47087E-003	 -1.80010E-002
  7.86432E+001	 -5.57541E-003	  8.15298E-004	  1.57406E-002	  2.73371E-003
  8.51968E+001	  2.19638E-003	 -1.16696E-002	  5.15118E-003	  3.29851E-003
  9.17504E+001	  4.48492E-004	 -3.81903E-003	 -8.19253E-003	  8.60210E-003
  9.83040E+001	  1.70204E-002	  2.24146E-003	  6.80375E-003	 -5.58978E-003
  1.04858E+002	  4.56249E-003	  3.18479E-003	  1.74040E-003	 -1.13631E-002
  1.17965E+002	 -2.26179E-003	 -1.03432E-003	  3.44560E-004	  1.74867E-002
  1.31072E+002	  9.49271E-004	 -5.63430E-004	  1.43790E-004	 -1.19966E-002
  1.44179E+002	  1.54539E-003	 -3.43904E-003	 -7.54668E-003	  7.71809E-003
  1.57286E+002	 -7.09863E-003	 -5.72106E-004	  4.48974E-003	  2.72286E-004
  1.70394E+002	 -1.56627E-003	  2.46410E-004	  4.11982E-003	  2.56164E-003
  1.83501E+002	  1.48801E-003	 -9.21052E-003	  6.29793E-003	 -1.29271E-003
  1.96608E+002	  7.07645E-003	  2.75416E-003	 -2.63216E-003	 -7.74105E-003
  2.09715E+002	 -3.18267E-003	 -2.85414E-003	 -7.78979E-003	 -8.09562E-003
  2.35930E+002	  4.08620E-003	  4.84179E-003	  1.60142E-004	 -6.54215E-003
  2.62144E+002	 -1.66447E-003	  1.01356E-002	  4.18075E-003	  4.99904E-003
  2.88358E+002	  5.08769E-003	  3.41161E-003	 -5.58446E-003	 -3.28734E-003
  3.14573E+002	 -7.65802E-004	 -1.08255E-003	 -2.41781E-003	  7.83284E-003
  3.40787E+002	 -8.33671E-003	 -9.73799E-003	  3.44748E-003	  5.84262E-004
  3.67002E+002	  6.40360E-003	 -3.52244E-003	  8.29544E-006	 -2.37057E-003
  3.93216E+002	 -7.28418E-004	  4.96355E-003	  2.44404E-005	 -4.61282E-003

"Count Rate"
       0.01311	      49.05701	      67.36755	      71.79260	      55.00793
       0.02621	      39.67285	      60.65369	      55.08423	      52.33765
       0.03932	      53.40576	      60.04333	      40.28320	      52.26135
       0.05243	      57.37305	      81.17676	      46.92078	      46.53931
       0.06554	      67.74902	      64.39209	      74.15771	      45.77637
       0.07864	      45.16602	      63.01880	      48.52295	      59.66187
       0.09175	      44.78455	      65.38391	      61.41663	      71.79260
       0.10486	      70.26672	      53.40576	      60.65369	      67.67273
       0.11796	      49.20959	      58.89893	      58.74634	      41.04614
       0.13107	      42.34314	      43.64014	      39.06250	      45.31860
       0.14418	      45.08972	      35.09521	      73.85254	      45.70007
       0.15729	      61.64551	      37.46033	      55.31311	      53.02429
       0.17039	      70.26672	      53.10059	      44.78455	      39.52026
       0.18350	      30.28870	      28.22876	      64.92615	      55.84717
       0.19661	      49.20959	      59.58557	      56.68640	      50.96436
       0.20972	      39.67285	      51.04065	      31.43311	      70.95337
       0.22282	      43.48755	      52.56653	      42.80090	      55.16052
       0.23593	      64.84985	      58.13599	      47.76001	      32.65381
       0.24904	      47.76001	      44.17419	      53.86353	      64.01062
       0.26214	      51.26953	      51.04065	      54.16870	      58.97522
       0.27525	      36.01074	      33.87451	      83.31299	      43.56384
       0.28836	      42.26685	      51.04065	      74.08142	      44.55566
       0.30147	      60.72998	      46.61560	      54.09241	      70.49561
       0.31457	      57.06787	      64.31580	      64.08691	      37.61292
       0.32768	      52.49023	      45.47119	      38.37585	      57.60193
       0.34079	      60.19592	      43.64014	      46.84448	      50.88806
       0.35389	      64.77356	      51.80359	      49.36218	      67.97791
       0.36700	      47.37854	      62.02698	      67.52014	      27.84729
       0.38011	      44.70825	      46.92078	      35.32410	      45.47119
       0.39322	      35.32410	      62.40845	      77.36206	      58.97522
       0.40632	      69.80896	      48.90442	      43.33496	      50.12512
       0.41943	      42.72461	      61.64551	      53.32947	      65.68909
       0.43254	      52.64282	      46.84448	      55.00793	      66.98608
       0.44564	      46.53931	      47.98889	      54.01611	      43.33496
       0.45875	      62.63733	      67.67273	      55.31311	      59.20410
       0.47186	      50.27771	      45.01343	      74.69177	      35.93445
       0.48497	      41.80908	      54.55017	      52.79541	      41.19873
       0.49807	      65.46021	      63.70544	      52.79541	      40.51208
       0.51118	      59.89075	      48.29407	      43.33496	      60.95886
       0.52429	      50.50659	      71.18225	      57.60193	      56.15234
       0.53740	      58.28857	      46.99707	      55.16052	      47.83630
       0.55050	      66.37573	      47.76001	      64.84985	      56.07605
       0.56361	      43.79272	      35.17151	      44.93713	      58.28857
       0.57672	      50.73547	      42.72461	      55.38940	      79.19312
       0.58982	      71.10596	      50.04883	      41.65649	      51.04065
       0.60293	      65.53650	      45.16602	      53.25317	      97.19849
       0.61604	      52.03247	      61.87439	      60.27222	      51.49841
       0.62915	      65.30762	      61.56921	      49.81995	      56.68640
       0.64225	      51.11694	      62.40845	      56.07605	      61.41663
       0.65536	      43.02979	      43.33496	      60.88257	      33.95081
       0.66847	      54.09241	      46.31042	      43.56384	      59.20410
       0.68157	      52.87170	      50.35400	      45.47119	      50.81177
       0.69468	      48.90442	      56.38123	      69.88525	      63.93433
       0.70779	      56.83899	      53.86353	      70.57190	      49.13330
       0.72090	      72.32666	      82.16858	      49.81995	      90.25574
       0.73400	      55.77087	      58.89893	      54.70276	      38.29956
       0.74711	      45.01343	      67.67273	      44.63196	      53.25317
       0.76022	      47.91260	      33.79822	      53.40576	      54.70276
       0.77332	      41.04614	      41.96167	      60.42480	      34.56116
       0.78643	      53.63464	      72.40295	      47.22595	      55.77087
       0.79954	      41.27502	      55.99976	      59.73816	      51.80359
       0.81265	      56.61011	      41.35132	      60.27222	      34.17969
       0.82575	      83.92334	      28.53394	      57.60193	      52.10876
       0.83886	      53.93982	      50.50659	      50.50659	      76.37024
       0.85197	      55.31311	      48.59924	      48.06519	      49.74365
       0.86508	      58.59375	      68.74084	      54.55017	      58.82263
       0.87818	      43.02979	      46.99707	      72.47925	      52.41394
       0.89129	      54.55017	      54.77905	      44.70825	      55.38940
       0.90440	      44.32678	      55.84717	      43.10608	      47.91260
       0.91750	      42.95349	      46.15784	      39.82544	      39.90173
       0.93061	      44.40308	      33.87451	      55.38940	      35.01892

Monitor Diode	      1.00
