ALV-7004/USB-FAST
Date :	"11/11/2025"
Time :	"3:57:01 PM"
Samplename : 	""
SampMemo(0) : 	""
SampMemo(1) : 	""
SampMemo(2) : 	""
SampMemo(3) : 	""
SampMemo(4) : 	""
SampMemo(5) : 	""
SampMemo(6) : 	""
SampMemo(7) : 	""
SampMemo(8) : 	""
SampMemo(9) : 	""
Temperature [K] :	     298.16000
Viscosity [cp]  :	       0.89000
Refractive Index:	       1.33200
Wavelength [nm] :	       0.00000
Angle [°]       :	       0.00000
Duration [s]    :	         1
FloatDur [ms]   :	          944
Stop TP [ms]   :	     67736
Runs            :	         1
Mode            :	"A-CH0+1  A-CH2+3 "
MeanCR0 [kHz]   :	      46.12923
MeanCR1 [kHz]   :	      48.19128
MeanCR2 [kHz]   :	      47.33721
MeanCR3 [kHz]   :	      46.16738

"Correlation"
  3.12500E-006	 -1.00000E+000	 -1.00000E+000	 -1.00000E+000	 -1.00000E+000
  6.25000E-006	 -1.00000E+000	 -1.00000E+000	 -1.00000E+000	 -1.00000E+000
  9.37500E-006	 -1.00000E+000	 -1.00000E+000	 -1.00000E+000	 -1.00000E+000
  1.25000E-005	 -1.00000E+000	 -1.00000E+000	 -1.00000E+000	 -1.00000E+000
  1.56250E-005	 -1.00000E+000	 -1.00000E+000	 -1.00000E+000	 -1.00000E+000
  1.87500E-005	 -1.00000E+000	 -1.00000E+000	 -1.00000E+000	 -1.00000E+000
  2.18750E-005	 -6.81298E-001	  1.48210E+000	  2.17776E+000	 -1.00000E+000
  2.50000E-005	  1.57319E+001	  1.19945E+001	  1.35269E+001	  3.03403E+001
  2.81250E-005	  3.78053E+000	  2.50414E+000	  1.72380E+000	  1.15679E+001
  3.12500E-005	  1.15458E-001	  1.92012E+000	  6.64542E-001	  6.79531E+000
  3.43750E-005	  1.54962E+000	  1.33610E+000	  9.67186E-001	  5.20443E+000
  3.75000E-005	  1.15458E-001	  1.04408E+000	  9.67186E-001	  5.04534E+000
  4.06250E-005	  5.93511E-001	  1.19009E+000	  8.15864E-001	  2.49993E+000
  4.37500E-005	  1.70897E+000	  7.52071E-001	  9.67186E-001	  3.45446E+000
  4.68750E-005	  4.34160E-001	  3.14054E-001	  1.11851E+000	  4.09081E+000
  5.00000E-005	  2.74809E-001	  6.06065E-001	  5.88881E-001	  2.49993E+000
  5.62500E-005	  5.13836E-001	  6.79068E-001	  1.57247E+000	  3.05674E+000
  6.25000E-005	  1.15124E+000	  9.71080E-001	  7.40203E-001	  2.02267E+000
  6.87500E-005	  1.07156E+000	  5.33062E-001	  1.11851E+000	  1.38632E+000
  7.50000E-005	  5.93511E-001	  7.52071E-001	  5.13220E-001	  9.88599E-001
  8.12500E-005	  6.73187E-001	  6.79068E-001	  6.64542E-001	  1.46586E+000
  8.75000E-005	  1.23092E+000	  3.87056E-001	  1.34915E-001	  1.14769E+000
  9.37500E-005	  5.13836E-001	  1.19009E+000	  8.91525E-001	  4.31791E-001
  1.00000E-004	  8.32538E-001	  8.25074E-001	  1.00502E+000	  5.11335E-001
  1.12500E-004	  2.74809E-001	  6.79068E-001	  1.72745E-001	  8.29511E-001
  1.25000E-004	 -1.23569E-001	 -1.44600E-002	  3.61898E-001	  6.70423E-001
  1.37500E-004	  8.72376E-001	  7.88573E-001	  1.00502E+000	  1.02837E+000
  1.50000E-004	  8.32538E-001	  2.41050E-001	  5.88881E-001	  5.11335E-001
  1.62500E-004	  2.74809E-001	  6.79068E-001	  2.86237E-001	  3.12475E-001
  1.75000E-004	  4.73998E-001	  8.98077E-001	  3.99729E-001	  8.69283E-001
  1.87500E-004	  8.72376E-001	  3.14053E-001	  4.75390E-001	  4.71563E-001
  2.00000E-004	  5.13835E-001	  7.15569E-001	  4.75389E-001	  6.90309E-001
  2.25000E-004	  4.93916E-001	  4.78310E-001	  7.02372E-001	  9.09054E-001
  2.50000E-004	  6.73186E-001	  2.04549E-001	  7.21287E-001	  7.30080E-001
  2.75000E-004	  5.53673E-001	  8.43324E-001	  5.88881E-001	  2.92589E-001
  3.00000E-004	  2.74809E-001	  4.05307E-001	  9.48270E-001	  4.11905E-001
  3.25000E-004	  2.94728E-001	  6.24316E-001	  6.07796E-001	  2.13045E-001
  3.50000E-004	  5.73592E-001	  4.41808E-001	  2.86237E-001	  6.10765E-001
  3.75000E-004	  6.53268E-001	  3.14053E-001	  7.40203E-001	  5.31221E-001
  4.00000E-004	  5.43713E-001	  2.95802E-001	  4.84846E-001	  3.92018E-001
  4.50000E-004	  6.53267E-001	  3.68805E-001	  4.37558E-001	  1.33501E-001
  5.00000E-004	  3.84362E-001	  4.69184E-001	  4.75389E-001	  3.32360E-001
  5.50000E-004	  6.03470E-001	  3.96181E-001	  6.36168E-001	  1.33501E-001
  6.00000E-004	  7.03064E-001	  2.13674E-001	  4.28100E-001	  5.80935E-001
  6.50000E-004	  4.73997E-001	  5.23936E-001	  5.03761E-001	  3.12474E-001
  7.00000E-004	  5.63632E-001	  4.41808E-001	  7.49660E-001	  5.31220E-001
  7.50000E-004	  4.34159E-001	  6.42566E-001	  5.22677E-001	  5.80935E-001
  8.00000E-004	  4.78975E-001	  5.28497E-001	  5.03760E-001	  3.87046E-001
  9.00000E-004	  3.79381E-001	  4.46369E-001	  5.27404E-001	  3.92017E-001
  1.00000E-003	  5.73590E-001	  4.96559E-001	  4.99031E-001	  4.01960E-001
  1.10000E-003	  5.28773E-001	  3.82492E-001	  6.12523E-001	  3.32359E-001
  1.20000E-003	  3.94320E-001	  3.27739E-001	  5.08489E-001	  4.31789E-001
  1.30000E-003	  4.64036E-001	  5.14809E-001	  3.71354E-001	  3.02530E-001
  1.40000E-003	  4.19219E-001	  5.60436E-001	  4.47047E-001	  4.16874E-001
  1.50000E-003	  3.74401E-001	  3.23177E-001	  3.38282E-001	  2.22986E-001
  1.60000E-003	  4.71503E-001	  3.30019E-001	  3.87933E-001	  3.19958E-001
  1.80000E-003	  3.04683E-001	  4.76024E-001	  4.80147E-001	  4.06961E-001
  2.00000E-003	  4.14237E-001	  4.50929E-001	  3.97391E-001	  4.54192E-001
  2.20000E-003	  3.96808E-001	  4.78305E-001	  4.44680E-001	  4.24362E-001
  2.40000E-003	  4.66524E-001	  4.53211E-001	  5.55809E-001	  4.61649E-001
  2.60000E-003	  4.86442E-001	  4.12147E-001	  4.47044E-001	  3.42331E-001
  2.80000E-003	  5.88526E-001	  3.75645E-001	  5.32165E-001	  4.98936E-001
  3.00000E-003	  3.04683E-001	  3.84771E-001	  3.99755E-001	  4.26848E-001
  3.20000E-003	  3.74426E-001	  3.91610E-001	  4.36400E-001	  3.90831E-001
  3.60000E-003	  3.93100E-001	  4.20126E-001	  3.84382E-001	  3.89588E-001
  4.00000E-003	  4.21734E-001	  4.39518E-001	  3.65466E-001	  3.99531E-001
  4.40000E-003	  3.54507E-001	  4.14423E-001	  4.37582E-001	  3.08768E-001
  4.80000E-003	  3.91855E-001	  4.11001E-001	  4.09208E-001	  4.77802E-001
  5.20000E-003	  4.59083E-001	  3.52827E-001	  4.03297E-001	  3.83342E-001
  5.60000E-003	  3.70691E-001	  3.88188E-001	  3.84382E-001	  3.98256E-001
  6.00000E-003	  3.89365E-001	  3.23170E-001	  3.65466E-001	  3.37354E-001
  6.40000E-003	  3.55182E-001	  3.28294E-001	  3.19351E-001	  3.48562E-001
  7.20000E-003	  3.87552E-001	  3.39730E-001	  3.40039E-001	  3.16247E-001
  8.00000E-003	  3.32772E-001	  3.36308E-001	  3.10484E-001	  2.55344E-001
  8.80000E-003	  2.77992E-001	  2.78133E-001	  3.25853E-001	  3.42969E-001
  9.60000E-003	  2.99157E-001	  3.25501E-001	  3.23488E-001	  2.88281E-001
  1.04000E-002	  3.14097E-001	  2.63903E-001	  2.34822E-001	  3.03196E-001
  1.12000E-002	  2.26947E-001	  2.83295E-001	  2.86840E-001	  3.21188E-001
  1.20000E-002	  1.99557E-001	  3.06109E-001	  2.49009E-001	  2.67744E-001
  1.28000E-002	  2.48775E-001	  2.69304E-001	  2.51384E-001	  2.75524E-001
  1.44000E-002	  2.35985E-001	  2.30805E-001	  2.36311E-001	  2.55948E-001
  1.60000E-002	  2.46568E-001	  2.03170E-001	  2.07642E-001	  2.14000E-001
  1.76000E-002	  2.05794E-001	  1.96896E-001	  1.77495E-001	  2.11232E-001
  1.92000E-002	  1.76536E-001	  2.12322E-001	  2.18578E-001	  1.39453E-001
  2.08000E-002	  1.90204E-001	  1.92074E-001	  2.02618E-001	  1.88548E-001
  2.24000E-002	  1.61258E-001	  1.61845E-001	  1.60944E-001	  1.52814E-001
  2.40000E-002	  1.45696E-001	  1.51293E-001	  1.43802E-001	  1.59313E-001
  2.56000E-002	  1.55237E-001	  1.40500E-001	  1.35103E-001	  1.50687E-001
  2.88000E-002	  1.39518E-001	  1.20822E-001	  1.30226E-001	  1.53950E-001
  3.20000E-002	  1.09326E-001	  1.01286E-001	  1.26827E-001	  9.94142E-002
  3.52000E-002	  8.14685E-002	  9.80058E-002	  1.15867E-001	  1.16660E-001
  3.84000E-002	  8.70711E-002	  8.11792E-002	  7.67056E-002	  8.35911E-002
  4.16000E-002	  8.00430E-002	  4.96650E-002	  9.48822E-002	  8.01728E-002
  4.48000E-002	  6.96406E-002	  5.40856E-002	  4.68546E-002	  7.69099E-002
  4.80000E-002	  4.36266E-002	  7.76143E-002	  6.71001E-002	  6.30815E-002
  5.12000E-002	  4.46716E-002	  5.91108E-002	  5.11772E-002	  4.94478E-002
  5.76000E-002	  2.22826E-002	  3.47013E-002	  3.64729E-002	  4.51748E-002
  6.40000E-002	  4.40730E-002	  4.01205E-002	  2.33941E-002	  3.78418E-002
  7.04000E-002	  2.33721E-002	  2.39118E-002	  2.88112E-002	  5.33807E-002
  7.68000E-002	  1.43214E-002	  2.81900E-002	  2.47471E-002	  3.04912E-002
  8.32000E-002	  1.98467E-002	  3.00439E-002	  1.75056E-002	  3.99867E-003
  8.96000E-002	  1.51774E-002	  2.02265E-002	  2.38375E-002	  2.70964E-002
  9.60000E-002	  2.08349E-002	  1.45934E-002	  4.25627E-003	  1.14257E-002
  1.02400E-001	  1.63045E-002	  1.75988E-002	  1.02758E-002	  1.11359E-002
  1.15200E-001	  2.73489E-002	  1.23220E-002	  8.09587E-003	  9.97028E-003
  1.28000E-001	  1.23613E-003	  1.13371E-002	  1.12079E-002	  1.23249E-002
  1.40800E-001	 -1.73748E-003	  1.74471E-002	 -3.88235E-003	  1.61483E-002
  1.53600E-001	  1.37515E-002	  1.26785E-002	 -2.61181E-004	  6.51215E-003
  1.66400E-001	  1.34402E-002	  9.37617E-003	 -3.69760E-003	  3.10869E-003
  1.79200E-001	  7.57947E-003	  9.40308E-003	  1.77111E-003	  4.03395E-003
  1.92000E-001	  9.78198E-003	  5.46787E-003	  1.22884E-004	  1.00016E-002
  2.04800E-001	  3.25727E-003	  3.87995E-003	 -1.87196E-004	  2.05732E-003
  2.30400E-001	 -5.11893E-003	 -3.73168E-003	 -2.67846E-004	  6.77334E-003
  2.56000E-001	 -2.25443E-003	  3.37150E-003	  1.00429E-002	 -1.44302E-003
  2.81600E-001	 -6.95179E-003	 -2.20824E-003	  1.06854E-002	  4.95478E-003
  3.07200E-001	 -5.26876E-003	 -1.78996E-003	  1.85797E-002	 -4.96314E-003
  3.32800E-001	  9.90611E-004	  7.64620E-004	  1.51243E-002	  4.13717E-003
  3.58400E-001	  1.02245E-003	  7.07511E-003	  2.30059E-003	  4.89524E-003
  3.84000E-001	  9.27317E-003	  3.98265E-003	 -1.12193E-004	  1.32420E-002
  4.09600E-001	 -2.73947E-003	  1.10843E-003	 -4.07091E-003	  3.53567E-003
  4.60800E-001	  3.70091E-003	 -5.96085E-003	 -3.81758E-003	  4.94058E-004
  5.12000E-001	 -2.46345E-003	 -2.14568E-003	 -6.41215E-003	  1.56128E-003
  5.63200E-001	  4.21181E-003	  6.49843E-005	  1.10245E-003	 -8.12284E-003
  6.14400E-001	 -7.91873E-004	 -2.30679E-003	 -3.23696E-003	  7.23625E-003
  6.65600E-001	  1.38221E-002	 -8.00269E-004	 -3.70442E-003	  1.09423E-003
  7.16800E-001	  4.11835E-003	  1.93595E-003	 -4.32200E-003	 -3.45642E-003
  7.68000E-001	  1.60362E-003	  3.53169E-003	 -3.89239E-003	 -5.01509E-003
  8.19200E-001	 -1.55270E-004	 -1.47324E-003	  5.60655E-003	 -1.80584E-003
  9.21600E-001	 -4.25013E-003	 -1.86662E-003	 -6.71967E-003	  6.28292E-003
  1.02400E+000	  1.81880E-003	  4.55198E-003	  6.63369E-003	  3.44010E-003
  1.12640E+000	 -9.80145E-004	 -2.96606E-003	  5.70085E-003	 -4.44860E-003
  1.22880E+000	  2.65900E-003	  1.09461E-006	  3.28471E-003	 -2.19400E-004
  1.33120E+000	  9.32832E-003	 -7.02538E-003	  2.05413E-003	 -5.06668E-003
  1.43360E+000	  8.34822E-003	 -4.02169E-003	  3.33985E-003	  3.39814E-003
  1.53600E+000	  1.43321E-003	 -4.63847E-003	  3.70602E-003	  2.52022E-003
  1.63840E+000	 -3.91647E-004	 -9.33670E-004	 -4.74101E-004	 -3.14028E-003
  1.84320E+000	  1.51810E-003	  2.63752E-003	 -3.28842E-003	  9.87246E-005
  2.04800E+000	 -5.35646E-003	  2.52051E-003	 -5.79567E-003	 -5.52409E-003
  2.25280E+000	  5.51623E-003	 -3.81103E-003	  4.71845E-003	 -3.33119E-003
  2.45760E+000	  4.24749E-003	 -2.71700E-003	  1.59999E-003	  4.90572E-004
  2.66240E+000	  5.90172E-003	  5.23777E-004	  7.73274E-003	 -2.80746E-003
  2.86720E+000	 -1.63586E-003	  6.54544E-004	 -2.03310E-003	 -6.16515E-003
  3.07200E+000	  1.34925E-003	 -2.72079E-003	 -8.20034E-003	  6.47717E-004
  3.27680E+000	 -1.19569E-003	  9.10618E-004	 -2.10110E-003	 -1.75453E-003
  3.68640E+000	 -2.31610E-003	  1.41692E-003	 -1.19959E-003	 -2.47189E-003
  4.09600E+000	 -2.87963E-003	  5.29886E-004	  3.18741E-003	  7.16103E-004
  4.50560E+000	  1.19458E-003	  2.31227E-003	  2.65295E-003	  2.63982E-003
  4.91520E+000	  7.82927E-004	  3.33420E-003	  5.88780E-003	 -2.31896E-003
  5.32480E+000	  2.30644E-003	 -3.06856E-003	 -3.18478E-003	  1.84633E-003
  5.73440E+000	  1.55994E-003	 -1.59560E-003	 -3.29298E-003	 -1.15319E-003
  6.14400E+000	  3.93529E-003	  2.41547E-004	  7.52618E-005	 -1.22890E-003
  6.55360E+000	  1.76562E-003	  2.30444E-003	  6.23435E-004	 -1.19240E-003
  7.37280E+000	  2.12204E-003	 -2.10930E-003	  8.22337E-004	  8.09500E-004
  8.19200E+000	 -1.83529E-003	 -2.61533E-003	  4.60229E-004	  5.71093E-004
  9.01120E+000	  1.23511E-004	  1.37477E-003	  4.55758E-004	  7.69982E-004
  9.83040E+000	 -8.46923E-004	 -1.57952E-003	  3.80743E-004	  2.06323E-003
  1.06496E+001	  9.57623E-004	  1.91844E-003	  2.25926E-003	  1.28250E-003
  1.14688E+001	 -2.70695E-003	 -1.21879E-003	  4.31213E-003	 -2.08706E-003
  1.22880E+001	 -6.29610E-004	 -8.22749E-004	  8.60866E-004	 -2.16833E-003
  1.31072E+001	 -6.92666E-004	  1.18078E-004	 -1.72525E-003	  1.86114E-003
  1.47456E+001	 -2.76585E-005	  1.19871E-004	  1.31508E-003	 -1.10515E-003
  1.63840E+001	  1.54179E-004	 -9.49717E-004	  6.83998E-004	 -5.72449E-005
  1.80224E+001	  5.30342E-004	 -2.22480E-004	  6.38747E-004	  1.63165E-003
  1.96608E+001	 -2.91781E-004	 -5.93886E-004	  2.51426E-004	  2.35363E-004
  2.12992E+001	  9.34313E-005	  1.87322E-003	 -3.84418E-004	 -2.18641E-004
  2.29376E+001	 -2.23782E-003	 -3.62842E-004	 -2.47984E-004	  1.22598E-004
  2.45760E+001	 -7.62900E-004	  5.40845E-004	 -9.54839E-005	 -2.38741E-004
  2.62144E+001	  2.18856E-004	  3.20350E-004	  3.50592E-004	  8.88250E-004
  2.94912E+001	 -1.82172E-003	  3.22985E-004	 -5.75126E-004	 -4.42390E-005
  3.27680E+001	  2.45483E-004	 -5.84513E-004	 -9.00790E-004	 -7.61709E-004
  3.60448E+001	 -6.21460E-004	 -4.24811E-004	  5.66754E-004	  1.17286E-003
  3.93216E+001	 -1.42956E-003	  8.60752E-004	  4.41921E-004	  2.81960E-004
  4.25984E+001	 -1.32845E-003	 -7.66287E-004	  3.64774E-005	 -3.52084E-004
  4.58752E+001	 -1.77228E-003	 -3.72007E-005	  3.22115E-004	 -9.36900E-004
  4.91520E+001	 -1.74472E-003	 -4.85900E-004	 -1.35253E-004	  5.20102E-004
  5.24288E+001	 -7.68483E-004	 -1.65289E-004	 -1.93149E-004	  2.25264E-005
  5.89824E+001	  1.04229E-003	 -6.91458E-004	  1.17048E-003	  3.53947E-004
  6.55360E+001	 -2.63984E-004	 -2.50201E-004	  1.29334E-005	 -5.14951E-004
  7.20896E+001	  1.75107E-004	  2.70278E-004	  4.62902E-004	  3.52557E-004
  7.86432E+001	 -4.99978E-004	  7.32245E-004	  1.05744E-003	  2.56481E-004
  8.51968E+001	  1.76993E-003	 -9.56532E-004	  4.01064E-004	 -7.80512E-004
  9.17504E+001	  8.59885E-004	 -1.90405E-004	 -4.25170E-004	  1.80231E-004
  9.83040E+001	 -2.51907E-004	  8.70548E-004	  1.12566E-004	 -4.66367E-004
  1.04858E+002	 -7.43509E-004	 -2.45804E-004	 -1.35341E-005	 -3.15820E-005
  1.17965E+002	  9.28522E-004	  2.56944E-005	 -6.28308E-004	  3.92827E-004
  1.31072E+002	 -3.47294E-004	 -1.95628E-004	 -1.20016E-003	 -1.32302E-004
  1.44179E+002	  3.52190E-004	 -4.41280E-004	 -5.77782E-005	 -1.62173E-004
  1.57286E+002	 -9.91052E-004	 -2.90548E-004	  2.21082E-004	  7.36360E-004
  1.70394E+002	 -1.68444E-004	  4.26707E-004	 -2.70868E-004	 -2.70152E-004
  1.83501E+002	  1.14767E-003	 -1.22119E-004	 -3.35425E-004	  2.09714E-004
  1.96608E+002	 -1.46147E-004	  5.36188E-004	 -7.84142E-004	  2.53249E-004
  2.09715E+002	  1.98299E-004	 -3.12521E-004	  2.42911E-004	 -2.38375E-004
  2.35930E+002	  6.25494E-005	 -3.46894E-004	 -1.07135E-003	 -2.89380E-004
  2.62144E+002	 -7.51864E-005	  1.62381E-004	 -2.64108E-005	  2.92869E-005
  2.88358E+002	  1.51415E-004	  2.55273E-004	 -2.40036E-004	  2.94498E-004
  3.14573E+002	  1.76529E-004	  4.75340E-005	 -6.91273E-004	 -2.67215E-004
  3.40787E+002	 -4.07615E-004	 -2.44955E-004	 -1.99752E-006	  5.51711E-004
  3.67002E+002	  7.00301E-004	 -8.26659E-005	  1.14502E-003	 -4.99749E-004
  3.93216E+002	 -2.88582E-004	 -3.14723E-004	  2.23859E-004	 -1.23128E-004

"Count Rate"
       0.01311	      40.28320	      50.50659	      41.80908	      44.63196
       0.02621	      38.68103	      47.30225	      51.57471	      43.25867
       0.03932	      47.98889	      49.20959	      52.87170	      40.96985
       0.05243	      42.95349	      45.77637	      43.02979	      43.48755
       0.06554	      48.90442	      45.85266	      45.92896	      43.48755
       0.07864	      45.08972	      47.37854	      42.57202	      44.17419
       0.09175	      43.18237	      46.08154	      50.81177	      43.25867
       0.10486	      43.02979	      52.10876	      47.14966	      44.09790
       0.11796	      47.37854	      49.97253	      48.06519	      45.16602
       0.13107	      45.54749	      44.93713	      46.99707	      48.98071
       0.14418	      49.28589	      48.14148	      44.55566	      44.32678
       0.15729	      46.92078	      45.24231	      45.47119	      45.47119
       0.17039	      45.01343	      49.28589	      48.52295	      45.31860
       0.18350	      41.50391	      46.00525	      49.66736	      49.20959
       0.19661	      45.77637	      47.60742	      42.03796	      46.31042
       0.20972	      51.04065	      45.31860	      48.29407	      45.47119
       0.22282	      46.53931	      46.38672	      46.46301	      45.62378
       0.23593	      41.19873	      47.53113	      45.77637	      42.95349
       0.24904	      41.96167	      48.98071	      49.28589	      39.44397
       0.26214	      45.39490	      42.34314	      45.70007	      45.77637
       0.27525	      46.15784	      49.36218	      43.48755	      43.56384
       0.28836	      48.21777	      47.45483	      41.96167	      49.59106
       0.30147	      49.74365	      46.61560	      38.29956	      46.92078
       0.31457	      46.00525	      46.53931	      42.03796	      43.94531
       0.32768	      44.86084	      47.14966	      51.65100	      48.21777
       0.34079	      45.77637	      45.77637	      43.71643	      47.76001
       0.35389	      49.43848	      45.01343	      44.47937	      46.31042
       0.36700	      39.74915	      46.92078	      40.05432	      47.68372
       0.38011	      45.16602	      49.66736	      46.23413	      47.14966
       0.39322	      53.63464	      51.04065	      46.99707	      44.17419
       0.40632	      46.15784	      46.69189	      46.38672	      45.70007
       0.41943	      45.62378	      46.69189	      47.22595	      51.57471
       0.43254	      44.09790	      48.59924	      50.73547	      40.35950
       0.44564	      44.86084	      47.98889	      46.23413	      51.80359
       0.45875	      41.19873	      40.43579	      47.60742	      49.97253
       0.47186	      44.02161	      50.35400	      48.21777	      51.11694
       0.48497	      44.86084	      47.37854	      46.31042	      45.16602
       0.49807	      48.14148	      45.24231	      45.47119	      44.63196
       0.51118	      47.91260	      45.85266	      50.12512	      43.79272
       0.52429	      44.25049	      45.54749	      42.26685	      47.14966
       0.53740	      46.76819	      44.09790	      47.45483	      46.00525
       0.55050	      38.98621	      50.58289	      52.71912	      45.16602
       0.56361	      46.99707	      55.08423	      43.86902	      46.61560
       0.57672	      43.02979	      47.60742	      46.99707	      46.69189
       0.58982	      49.28589	      48.21777	      46.00525	      43.33496
       0.60293	      42.41943	      48.59924	      52.33765	      44.25049
       0.61604	      46.92078	      45.47119	      48.82813	      46.69189
       0.62915	      47.53113	      48.14148	      48.52295	      44.40308
       0.64225	      41.88538	      47.45483	      45.62378	      43.94531
       0.65536	      46.08154	      49.43848	      48.29407	      45.47119
       0.66847	      41.50391	      49.66736	      44.55566	      46.84448
       0.68157	      48.90442	      47.83630	      44.86084	      46.92078
       0.69468	      46.76819	      50.81177	      45.77637	      47.30225
       0.70779	      45.54749	      43.48755	      46.76819	      41.58020
       0.72090	      38.90991	      44.86084	      44.32678	      45.01343
       0.73400	      42.87720	      47.14966	      44.47937	      45.92896
       0.74711	      49.89624	      46.76819	      41.12244	      48.06519
       0.76022	      45.54749	      49.28589	      46.38672	      46.08154
       0.77332	      45.77637	      42.72461	      47.83630	      45.16602
       0.78643	      43.02979	      45.92896	      45.77637	      45.24231
       0.79954	      43.18237	      44.40308	      47.83630	      44.78455
       0.81265	      43.33496	      47.07336	      49.97253	      47.60742
       0.82575	      46.31042	      43.79272	      45.24231	      41.88538
       0.83886	      43.79272	      49.74365	      48.52295	      46.23413
       0.85197	      47.30225	      45.77637	      45.85266	      42.95349
       0.86508	      47.14966	      48.44666	      48.44666	      41.27502
       0.87818	      51.42212	      51.04065	      52.56653	      46.08154
       0.89129	      44.02161	      49.74365	      49.43848	      43.94531
       0.90440	      42.49573	      47.30225	      43.94531	      44.63196
       0.91750	      49.51477	      50.88806	      46.61560	      44.17419
       0.93061	      48.29407	      45.47119	      49.36218	      51.04065

Monitor Diode	      1.00
