ALV-7004/USB-FAST
Date :	"11/11/2025"
Time :	"3:52:59 PM"
Samplename : 	""
SampMemo(0) : 	""
SampMemo(1) : 	""
SampMemo(2) : 	""
SampMemo(3) : 	""
SampMemo(4) : 	""
SampMemo(5) : 	""
SampMemo(6) : 	""
SampMemo(7) : 	""
SampMemo(8) : 	""
SampMemo(9) : 	""
Temperature [K] :	     298.16000
Viscosity [cp]  :	       0.89000
Refractive Index:	       1.33200
Wavelength [nm] :	       0.00000
Angle [°]       :	       0.00000
Duration [s]    :	         1
FloatDur [ms]   :	          944
Stop TP [ms]   :	     58054
Runs            :	         1
Mode            :	"A-CH0+1  A-CH2+3 "
MeanCR0 [kHz]   :	      58.95403
MeanCR1 [kHz]   :	      60.66111
MeanCR2 [kHz]   :	      59.58557
MeanCR3 [kHz]   :	      56.75210

"Correlation"
  3.12500E-006	 -1.00000E+000	 -1.00000E+000	 -1.00000E+000	 -1.00000E+000
  6.25000E-006	 -1.00000E+000	 -1.00000E+000	 -1.00000E+000	 -1.00000E+000
  9.37500E-006	 -1.00000E+000	 -1.00000E+000	 -1.00000E+000	 -1.00000E+000
  1.25000E-005	 -1.00000E+000	 -1.00000E+000	 -1.00000E+000	 -1.00000E+000
  1.56250E-005	 -1.00000E+000	 -1.00000E+000	 -1.00000E+000	 -1.00000E+000
  1.87500E-005	 -1.00000E+000	 -1.00000E+000	 -1.00000E+000	 -1.00000E+000
  2.18750E-005	 -1.00000E+000	  1.97927E-001	  9.10097E-001	 -4.73603E-001
  2.50000E-005	  1.20733E+001	  1.33751E+001	  1.14156E+001	  2.65832E+001
  2.81250E-005	  3.39029E+000	  1.67230E+000	  2.34267E+000	  9.00155E+000
  3.12500E-005	  1.53661E+000	  5.66520E-001	  4.32572E-001	  3.52702E+000
  3.43750E-005	  1.04880E+000	  1.02726E+000	  2.05615E+000	  3.84286E+000
  3.75000E-005	  1.14636E+000	  1.21156E+000	  1.38762E+000	  3.42174E+000
  4.06250E-005	  8.53678E-001	  6.58668E-001	  5.28077E-001	  2.47422E+000
  4.37500E-005	  1.24393E+000	  8.42964E-001	  7.19087E-001	  4.89565E+000
  4.68750E-005	  1.53661E+000	  1.30371E+000	  1.19661E+000	  1.94783E+000
  5.00000E-005	  8.04896E-001	  8.42964E-001	  2.41563E-001	  2.52686E+000
  5.62500E-005	  8.53677E-001	  8.42964E-001	 -1.40457E-001	  1.73727E+000
  6.25000E-005	  1.09758E+000	  7.50816E-001	  8.14592E-001	  1.84255E+000
  6.87500E-005	  6.58553E-001	  6.58668E-001	  4.80325E-001	  1.10559E+000
  7.50000E-005	  4.14649E-001	  5.20445E-001	  3.37067E-001	  1.84255E+000
  8.12500E-005	  6.58553E-001	  6.58668E-001	  7.19087E-001	  1.63199E+000
  8.75000E-005	  5.12211E-001	  6.12594E-001	  6.23582E-001	  6.84471E-001
  9.37500E-005	  3.65868E-001	  3.36149E-001	  4.80325E-001	  1.00031E+000
  1.00000E-004	  6.34163E-001	  6.58668E-001	  4.08696E-001	  1.21087E+000
  1.12500E-004	  5.60991E-001	  4.97408E-001	  2.65439E-001	  7.10791E-001
  1.25000E-004	  7.31725E-001	  3.59186E-001	  9.57849E-001	  9.73990E-001
  1.37500E-004	  5.12210E-001	  7.27779E-001	  4.08696E-001	  6.58151E-001
  1.50000E-004	  2.68305E-001	  2.90075E-001	  3.60944E-001	  8.16070E-001
  1.62500E-004	  5.12210E-001	  3.59186E-001	  7.90715E-001	  6.84471E-001
  1.75000E-004	  2.68305E-001	  4.28297E-001	  5.99706E-001	  5.79192E-001
  1.87500E-004	  4.14648E-001	  4.28297E-001	  5.51953E-001	  5.00232E-001
  2.00000E-004	  5.73186E-001	  5.66519E-001	  5.16139E-001	  6.71311E-001
  2.25000E-004	  4.75624E-001	  4.28297E-001	  5.40015E-001	  2.89673E-001
  2.50000E-004	  7.43920E-001	  5.89556E-001	  4.68386E-001	  7.23951E-001
  2.75000E-004	  4.51234E-001	  5.20445E-001	  3.60943E-001	  4.21272E-001
  3.00000E-004	  5.97577E-001	  6.12593E-001	  5.99705E-001	  7.76590E-001
  3.25000E-004	  6.46358E-001	  5.31963E-001	  6.11643E-001	  5.79191E-001
  3.50000E-004	  3.78062E-001	  6.93223E-001	  5.51953E-001	  5.52872E-001
  3.75000E-004	  4.87820E-001	  7.04741E-001	  4.20634E-001	  5.79191E-001
  4.00000E-004	  4.39038E-001	  5.55000E-001	  4.92262E-001	  6.91050E-001
  4.50000E-004	  3.84159E-001	  5.49241E-001	  5.75828E-001	  4.41012E-001
  5.00000E-004	  5.12209E-001	  7.50815E-001	  5.45983E-001	  5.92351E-001
  5.50000E-004	  2.92695E-001	  6.70185E-001	  4.50478E-001	  4.54171E-001
  6.00000E-004	  4.63428E-001	  5.03166E-001	  3.90788E-001	  5.39711E-001
  6.50000E-004	  5.18307E-001	  2.61278E-001	  5.40014E-001	  6.12091E-001
  7.00000E-004	  4.02452E-001	  4.68611E-001	  3.84819E-001	  5.72611E-001
  7.50000E-004	  2.37817E-001	  5.72278E-001	  6.23581E-001	  4.87071E-001
  8.00000E-004	  4.84769E-001	  5.11804E-001	  5.13152E-001	  5.66029E-001
  9.00000E-004	  4.35988E-001	  5.34841E-001	  4.95245E-001	  4.57460E-001
  1.00000E-003	  5.79282E-001	  5.57878E-001	  4.95245E-001	  5.49580E-001
  1.10000E-003	  5.85379E-001	  5.54999E-001	  4.71369E-001	  4.64040E-001
  1.20000E-003	  4.32939E-001	  4.13897E-001	  3.87802E-001	  3.55471E-001
  1.30000E-003	  4.63427E-001	  4.05258E-001	  3.81833E-001	  4.64040E-001
  1.40000E-003	  4.32939E-001	  4.13897E-001	  5.04199E-001	  5.52870E-001
  1.50000E-003	  3.99402E-001	  3.79341E-001	  3.19158E-001	  5.00230E-001
  1.60000E-003	  4.17693E-001	  4.26853E-001	  4.69874E-001	  5.03517E-001
  1.80000E-003	  5.10681E-001	  4.64288E-001	  4.45998E-001	  4.95292E-001
  2.00000E-003	  4.90864E-001	  4.78686E-001	  5.25088E-001	  4.52523E-001
  2.20000E-003	  4.72571E-001	  4.75806E-001	  4.53459E-001	  4.17978E-001
  2.40000E-003	  3.59765E-001	  4.95964E-001	  4.78828E-001	  4.90357E-001
  2.60000E-003	  3.46046E-001	  4.54209E-001	  4.04215E-001	  4.09753E-001
  2.80000E-003	  4.43608E-001	  4.35492E-001	  3.92277E-001	  3.19279E-001
  3.00000E-003	  4.46656E-001	  4.13894E-001	  3.92277E-001	  3.65339E-001
  3.20000E-003	  4.22287E-001	  3.77894E-001	  4.09433E-001	  3.89186E-001
  3.60000E-003	  4.32221E-001	  4.35487E-001	  4.87776E-001	  4.17151E-001
  4.00000E-003	  4.28410E-001	  4.22528E-001	  3.65411E-001	  4.22908E-001
  4.40000E-003	  4.34508E-001	  4.22528E-001	  3.60188E-001	  4.36068E-001
  4.80000E-003	  3.33132E-001	  4.03091E-001	  4.20625E-001	  4.00701E-001
  5.20000E-003	  3.63621E-001	  3.69976E-001	  4.07194E-001	  4.05636E-001
  5.60000E-003	  4.04806E-001	  4.08130E-001	  4.28832E-001	  3.77671E-001
  6.00000E-003	  3.87275E-001	  4.00211E-001	  4.00479E-001	  4.19618E-001
  6.40000E-003	  4.06753E-001	  4.11000E-001	  4.07558E-001	  3.92878E-001
  7.20000E-003	  3.75500E-001	  3.71406E-001	  4.14273E-001	  3.94934E-001
  8.00000E-003	  3.59112E-001	  3.74286E-001	  3.79951E-001	  3.60390E-001
  8.80000E-003	  3.18331E-001	  3.30732E-001	  4.05693E-001	  4.00280E-001
  9.60000E-003	  4.08659E-001	  3.87244E-001	  3.65402E-001	  3.73549E-001
  1.04000E-002	  3.26715E-001	  3.44770E-001	  3.75848E-001	  3.55044E-001
  1.12000E-002	  3.65234E-001	  3.50529E-001	  3.74729E-001	  3.38594E-001
  1.20000E-002	  3.01203E-001	  3.46570E-001	  3.55329E-001	  3.30780E-001
  1.28000E-002	  3.08331E-001	  3.62076E-001	  3.46171E-001	  3.31996E-001
  1.44000E-002	  3.08902E-001	  3.72359E-001	  3.62213E-001	  3.44333E-001
  1.60000E-002	  2.96515E-001	  3.36543E-001	  3.01591E-001	  3.17808E-001
  1.76000E-002	  2.77052E-001	  3.15125E-001	  3.02897E-001	  3.14724E-001
  1.92000E-002	  2.62188E-001	  3.02189E-001	  2.89653E-001	  2.89433E-001
  2.08000E-002	  2.67501E-001	  2.57733E-001	  2.85177E-001	  2.92312E-001
  2.24000E-002	  2.54732E-001	  2.39554E-001	  2.60555E-001	  2.85115E-001
  2.40000E-002	  2.41964E-001	  2.75551E-001	  2.68576E-001	  2.50160E-001
  2.56000E-002	  2.14884E-001	  2.56079E-001	  2.53104E-001	  2.59687E-001
  2.88000E-002	  2.14715E-001	  2.23953E-001	  2.54876E-001	  2.46425E-001
  3.20000E-002	  2.06615E-001	  1.95966E-001	  1.85861E-001	  2.16200E-001
  3.52000E-002	  1.92681E-001	  1.88497E-001	  2.08058E-001	  2.00184E-001
  3.84000E-002	  1.45797E-001	  1.72028E-001	  1.75788E-001	  1.93193E-001
  4.16000E-002	  1.52467E-001	  1.62510E-001	  1.56482E-001	  1.65251E-001
  4.48000E-002	  1.29005E-001	  1.60080E-001	  1.33073E-001	  1.66896E-001
  4.80000E-002	  1.46137E-001	  1.35152E-001	  1.35591E-001	  1.31530E-001
  5.12000E-002	  1.29399E-001	  1.20597E-001	  1.35750E-001	  1.25344E-001
  5.76000E-002	  1.17181E-001	  1.10428E-001	  1.04766E-001	  1.29354E-001
  6.40000E-002	  9.53586E-002	  9.98545E-002	  8.26896E-002	  9.65551E-002
  7.04000E-002	  7.78527E-002	  7.17777E-002	  7.77000E-002	  8.70958E-002
  7.68000E-002	  5.29814E-002	  5.68394E-002	  6.31044E-002	  8.13380E-002
  8.32000E-002	  6.07477E-002	  5.49946E-002	  5.70144E-002	  8.25204E-002
  8.96000E-002	  4.91221E-002	  3.68167E-002	  4.92735E-002	  4.32439E-002
  9.60000E-002	  4.41957E-002	  3.47469E-002	  4.43305E-002	  5.74328E-002
  1.02400E-001	  4.44117E-002	  3.09816E-002	  4.06953E-002	  3.74648E-002
  1.15200E-001	  3.18789E-002	  2.60096E-002	  3.21377E-002	  3.67573E-002
  1.28000E-001	  2.49454E-002	  9.86103E-003	  2.91997E-002	  2.99196E-002
  1.40800E-001	  3.51379E-002	  1.13860E-002	  1.81704E-002	  1.97526E-002
  1.53600E-001	  9.66692E-003	  9.95102E-003	  9.70602E-003	  5.92250E-003
  1.66400E-001	  1.39137E-002	  1.03688E-002	  7.31510E-003	  1.41675E-002
  1.79200E-001	  7.29566E-003	  9.80147E-003	  8.95986E-003	  1.66611E-002
  1.92000E-001	  9.23126E-003	  1.27665E-002	  1.23823E-002	  4.65593E-003
  2.04800E-001	  6.45739E-003	  8.06603E-003	  4.43557E-003	  8.72542E-003
  2.30400E-001	  1.73845E-003	  1.63082E-003	 -1.80280E-003	  5.09288E-003
  2.56000E-001	  4.80647E-003	  4.12974E-003	  4.34154E-003	  4.44308E-003
  2.81600E-001	  2.99536E-003	 -2.08686E-003	  8.21807E-003	  2.54133E-003
  3.07200E-001	 -5.73330E-004	 -6.06956E-003	  1.07120E-003	  9.61338E-003
  3.32800E-001	 -7.49004E-003	 -2.13186E-003	 -8.12816E-003	  1.15827E-002
  3.58400E-001	 -8.35996E-003	 -5.15315E-003	 -1.00582E-002	  1.38566E-002
  3.84000E-001	  2.05465E-003	  1.06214E-002	 -1.06181E-002	  1.26414E-002
  4.09600E-001	  2.14302E-003	  1.11816E-002	 -2.50236E-003	  9.89643E-003
  4.60800E-001	 -1.50409E-003	  4.25630E-003	  3.41847E-003	  2.00107E-003
  5.12000E-001	 -4.99007E-003	  1.04036E-002	  7.16534E-003	 -3.43486E-004
  5.63200E-001	  1.31483E-003	  6.53519E-003	 -2.91717E-003	 -2.21387E-003
  6.14400E-001	  3.65665E-003	  6.60136E-003	 -3.50750E-003	 -3.74342E-003
  6.65600E-001	 -2.60652E-003	  2.41433E-003	  5.05523E-003	 -1.21149E-003
  7.16800E-001	 -3.24840E-004	  1.56281E-003	  8.69337E-004	 -3.46696E-003
  7.68000E-001	  3.00726E-003	  3.06901E-004	  9.48043E-004	 -2.31993E-003
  8.19200E-001	  4.30404E-004	  5.77087E-003	 -1.40524E-004	  1.28485E-003
  9.21600E-001	  2.01674E-003	  2.91623E-003	 -1.58781E-003	  5.20274E-003
  1.02400E+000	  2.19890E-003	 -1.41576E-003	 -4.95768E-004	 -3.38962E-003
  1.12640E+000	  2.54895E-006	 -2.58254E-003	  2.01471E-003	  2.50330E-003
  1.22880E+000	 -1.28494E-003	  1.28055E-003	  2.61675E-003	  2.87490E-003
  1.33120E+000	 -3.76283E-003	 -2.83760E-003	  9.77772E-003	 -7.96723E-003
  1.43360E+000	 -1.08237E-003	 -4.63953E-003	  3.06818E-003	  2.24355E-003
  1.53600E+000	  2.19388E-003	  3.10568E-004	  6.29170E-003	  3.10765E-003
  1.63840E+000	 -5.89644E-004	  5.87191E-003	  1.07866E-003	 -2.93844E-003
  1.84320E+000	 -1.64706E-003	  1.56780E-003	 -3.27474E-003	 -4.11006E-004
  2.04800E+000	 -2.51653E-003	  1.26875E-003	 -4.38009E-003	 -2.62577E-003
  2.25280E+000	 -1.20844E-003	 -1.56144E-003	 -1.02231E-004	 -2.48788E-003
  2.45760E+000	 -6.67882E-004	 -3.43026E-005	  2.92516E-003	 -8.70374E-003
  2.66240E+000	 -4.85433E-003	  7.18871E-004	  4.23314E-004	  1.88335E-003
  2.86720E+000	 -3.92072E-003	 -1.74402E-003	  2.61376E-003	  6.77274E-003
  3.07200E+000	 -4.42674E-003	  1.16003E-004	 -5.00670E-003	  6.59858E-004
  3.27680E+000	 -4.56676E-003	 -4.99885E-003	 -3.13886E-003	 -4.38883E-004
  3.68640E+000	  1.00778E-003	  1.44007E-003	  4.20827E-003	  1.69335E-004
  4.09600E+000	  7.61936E-004	 -2.60678E-003	 -3.87430E-003	  3.58418E-003
  4.50560E+000	 -2.83527E-004	 -8.66705E-004	 -2.44221E-004	  3.07490E-003
  4.91520E+000	 -2.29434E-003	 -1.81623E-003	  2.23695E-004	  5.65342E-004
  5.32480E+000	 -2.39860E-003	  2.30338E-003	 -2.04496E-003	 -8.16299E-004
  5.73440E+000	  7.52369E-004	  1.47727E-003	 -1.62152E-003	 -1.34130E-003
  6.14400E+000	  3.94501E-003	  3.23946E-004	 -2.46626E-003	  2.09072E-003
  6.55360E+000	 -6.85810E-005	 -7.91821E-004	 -3.06926E-003	  5.89299E-004
  7.37280E+000	 -1.89761E-003	  4.81406E-004	  1.03222E-003	  1.56538E-003
  8.19200E+000	  1.51103E-003	 -2.72312E-003	 -1.85815E-003	 -2.62489E-003
  9.01120E+000	 -2.92834E-003	  1.60065E-003	  3.86917E-005	  5.34012E-004
  9.83040E+000	 -8.67173E-006	  5.55265E-004	  1.24320E-003	  2.39273E-004
  1.06496E+001	 -1.70506E-003	 -1.52784E-003	  1.56983E-003	 -4.64970E-004
  1.14688E+001	 -3.43471E-005	 -1.93728E-003	 -1.11279E-003	  2.16418E-003
  1.22880E+001	  2.95237E-003	 -4.60279E-004	 -1.23150E-003	 -1.50483E-004
  1.31072E+001	  1.03799E-003	  4.12208E-003	 -1.49401E-003	 -1.41439E-003
  1.47456E+001	 -3.34312E-004	  1.54550E-003	 -1.75488E-003	  1.73117E-003
  1.63840E+001	  2.47005E-003	 -7.06764E-004	 -1.16903E-003	 -1.59582E-003
  1.80224E+001	 -1.34035E-003	  5.91741E-004	 -7.53083E-005	  2.09984E-004
  1.96608E+001	 -7.89556E-004	 -1.73789E-004	  1.87377E-004	  5.55556E-004
  2.12992E+001	 -6.32219E-004	 -2.95882E-003	 -3.44593E-004	 -1.02085E-004
  2.29376E+001	 -1.61890E-003	 -7.52097E-004	 -1.56970E-003	 -1.99487E-003
  2.45760E+001	  2.78177E-003	 -1.14719E-004	  1.56470E-003	  2.22660E-003
  2.62144E+001	 -7.89475E-004	  4.54020E-004	  1.53989E-003	 -4.44696E-004
  2.94912E+001	 -5.16753E-004	 -1.97188E-004	 -8.88660E-004	  1.19991E-003
  3.27680E+001	  4.75879E-004	 -1.66243E-003	  1.61090E-003	 -1.83899E-004
  3.60448E+001	 -1.56924E-005	 -3.61302E-003	 -1.18890E-004	  6.57320E-004
  3.93216E+001	  6.10634E-004	 -1.10539E-003	 -2.17794E-003	  1.26419E-003
  4.25984E+001	 -6.96579E-004	 -1.90185E-003	  6.31523E-004	  6.81855E-004
  4.58752E+001	  7.29130E-004	  7.24900E-004	 -1.47588E-003	  8.11997E-005
  4.91520E+001	  3.66044E-004	 -3.11009E-003	 -8.59665E-004	  2.08650E-006
  5.24288E+001	  5.07967E-004	 -3.20683E-004	  4.67644E-004	  1.65994E-004
  5.89824E+001	 -6.65484E-004	  5.43427E-004	 -1.10623E-003	 -2.69010E-004
  6.55360E+001	 -1.88968E-004	  1.07249E-003	  1.14956E-003	  1.13343E-004
  7.20896E+001	  9.20931E-006	  6.62935E-004	 -9.64589E-005	 -1.39917E-003
  7.86432E+001	 -1.86434E-004	 -1.12588E-004	 -9.08675E-004	 -6.97697E-004
  8.51968E+001	  8.19116E-005	  8.50955E-004	  4.07580E-004	  1.37653E-003
  9.17504E+001	 -8.59705E-004	 -8.95629E-004	 -1.74202E-003	 -1.13248E-003
  9.83040E+001	 -1.02385E-003	  3.03443E-005	  1.80080E-004	 -5.27792E-005
  1.04858E+002	 -1.09301E-003	  3.24552E-004	 -1.98104E-004	 -4.61359E-004
  1.17965E+002	  1.93005E-004	  1.04002E-003	 -6.42018E-004	 -2.79464E-004
  1.31072E+002	  1.55515E-005	  9.52288E-004	  1.07344E-004	 -1.61000E-003
  1.44179E+002	 -1.60582E-004	 -2.20923E-004	  1.35006E-004	  5.66050E-004
  1.57286E+002	 -3.00852E-004	 -1.47047E-003	  1.80400E-004	 -8.97064E-004
  1.70394E+002	  8.58285E-004	 -1.22343E-003	  2.51765E-004	  2.66927E-004
  1.83501E+002	  2.98020E-004	  4.05969E-004	 -1.80002E-004	  1.38491E-003
  1.96608E+002	 -2.16750E-004	  1.54874E-003	  4.90704E-004	  7.64442E-004
  2.09715E+002	  7.73789E-004	 -1.23079E-004	  2.69514E-004	  5.03295E-004
  2.35930E+002	  7.19595E-004	 -1.43731E-004	  6.82593E-004	  7.42527E-004
  2.62144E+002	 -1.33919E-003	  5.57724E-004	 -1.91549E-004	 -3.40023E-005
  2.88358E+002	  4.13142E-004	 -8.75421E-004	 -3.43890E-004	 -1.53333E-004
  3.14573E+002	  8.46058E-005	  6.01930E-004	 -6.38882E-005	 -1.01909E-003
  3.40787E+002	 -9.73987E-004	  5.86771E-004	 -2.82311E-004	 -8.62482E-004
  3.67002E+002	  4.04379E-004	 -7.18360E-004	 -1.36884E-004	 -2.34963E-004
  3.93216E+002	  2.15200E-004	  3.50596E-004	  1.44428E-004	  7.75288E-004

"Count Rate"
       0.01311	      58.36487	      53.40576	      53.86353	      57.98340
       0.02621	      58.89893	      64.16321	      59.73816	      54.39758
       0.03932	      54.70276	      59.66187	      54.77905	      51.72729
       0.05243	      56.38123	      55.99976	      56.53381	      52.26135
       0.06554	      61.49292	      55.92346	      57.14417	      55.16052
       0.07864	      55.54199	      57.67822	      61.18774	      55.38940
       0.09175	      53.48206	      64.08691	      55.92346	      51.42212
       0.10486	      56.61011	      61.49292	      59.20410	      59.96704
       0.11796	      63.17139	      57.90710	      56.15234	      61.03516
       0.13107	      60.80627	      53.55835	      53.55835	      56.30493
       0.14418	      55.31311	      62.78992	      61.11145	      57.98340
       0.15729	      59.50928	      66.98608	      57.83081	      50.43030
       0.17039	      53.32947	      62.78992	      58.05969	      57.75452
       0.18350	      55.92346	      60.42480	      58.28857	      45.77637
       0.19661	      58.82263	      56.45752	      57.44934	      53.40576
       0.20972	      58.36487	      55.69458	      65.46021	      60.65369
       0.22282	      52.56653	      58.97522	      62.63733	      51.04065
       0.23593	      60.88257	      61.95068	      57.75452	      55.16052
       0.24904	      57.22046	      60.04333	      51.34583	      59.05151
       0.26214	      55.23682	      64.16321	      58.97522	      53.55835
       0.27525	      57.90710	      62.71362	      59.05151	      54.16870
       0.28836	      59.28040	      61.18774	      57.44934	      60.72998
       0.30147	      61.11145	      65.61279	      54.39758	      58.59375
       0.31457	      59.73816	      55.69458	      55.92346	      57.60193
       0.32768	      52.26135	      53.86353	      55.31311	      48.52295
       0.34079	      55.23682	      57.52563	      62.94250	      58.82263
       0.35389	      62.33215	      62.48474	      55.00793	      50.96436
       0.36700	      59.66187	      65.76538	      66.45203	      54.62646
       0.38011	      60.88257	      60.88257	      62.17957	      56.91528
       0.39322	      55.61829	      56.30493	      58.28857	      54.85535
       0.40632	      54.62646	      59.73816	      62.78992	      61.26404
       0.41943	      59.35669	      58.74634	      57.98340	      52.03247
       0.43254	      57.22046	      61.56921	      61.49292	      56.83899
       0.44564	      59.28040	      58.67004	      59.35669	      59.20410
       0.45875	      53.10059	      56.68640	      58.51746	      58.89893
       0.47186	      51.26953	      61.72180	      57.44934	      56.45752
       0.48497	      59.89075	      57.14417	      54.93164	      60.88257
       0.49807	      55.08423	      63.09509	      57.44934	      59.05151
       0.51118	      61.34033	      57.22046	      63.70544	      59.35669
       0.52429	      63.32397	      61.11145	      56.83899	      58.97522
       0.53740	      56.83899	      56.53381	      56.68640	      51.19324
       0.55050	      63.01880	      63.62915	      59.43298	      58.59375
       0.56361	      60.50110	      61.56921	      58.97522	      52.56653
       0.57672	      49.59106	      60.11963	      61.03516	      47.22595
       0.58982	      58.67004	      58.97522	      57.06787	      53.55835
       0.60293	      59.12781	      61.11145	      57.06787	      62.86621
       0.61604	      52.10876	      65.07874	      63.40027	      55.46570
       0.62915	      57.06787	      61.79810	      57.90710	      59.96704
       0.64225	      57.06787	      51.26953	      64.84985	      55.46570
       0.65536	      55.61829	      55.77087	      56.61011	      53.78723
       0.66847	      53.10059	      54.32129	      60.19592	      68.35938
       0.68157	      59.20410	      64.69727	      63.17139	      58.97522
       0.69468	      59.66187	      65.38391	      52.33765	      61.64551
       0.70779	      53.02429	      60.34851	      56.15234	      57.67822
       0.72090	      64.92615	      57.22046	      55.92346	      55.16052
       0.73400	      61.95068	      55.00793	      52.41394	      62.71362
       0.74711	      61.56921	      59.89075	      59.28040	      59.35669
       0.76022	      57.52563	      59.50928	      64.77356	      45.39490
       0.77332	      60.80627	      54.93164	      65.07874	      59.20410
       0.78643	      54.77905	      51.11694	      58.36487	      60.50110
       0.79954	      56.76270	      63.78174	      57.14417	      53.78723
       0.81265	      60.50110	      63.17139	      56.99158	      51.11694
       0.82575	      57.52563	      58.59375	      62.71362	      56.99158
       0.83886	      61.72180	      52.33765	      60.88257	      50.27771
       0.85197	      63.24768	      56.53381	      54.01611	      54.55017
       0.86508	      52.87170	      58.67004	      57.98340	      56.53381
       0.87818	      68.43567	      66.60461	      54.32129	      57.52563
       0.89129	      59.73816	      64.84985	      62.02698	      56.38123
       0.90440	      57.60193	      64.23950	      59.73816	      50.88806
       0.91750	      57.37305	      58.36487	      62.17957	      52.26135
       0.93061	      62.10327	      69.04602	      60.19592	      53.10059

Monitor Diode	      1.00
