ALV-7004/USB-FAST
Date :	"11/11/2025"
Time :	"4:00:20 PM"
Samplename : 	""
SampMemo(0) : 	""
SampMemo(1) : 	""
SampMemo(2) : 	""
SampMemo(3) : 	""
SampMemo(4) : 	""
SampMemo(5) : 	""
SampMemo(6) : 	""
SampMemo(7) : 	""
SampMemo(8) : 	""
SampMemo(9) : 	""
Temperature [K] :	     298.16000
Viscosity [cp]  :	       0.89000
Refractive Index:	       1.33200
Wavelength [nm] :	       0.00000
Angle [°]       :	       0.00000
Duration [s]    :	         1
FloatDur [ms]   :	          944
Stop TP [ms]   :	     68562
Runs            :	         1
Mode            :	"A-CH0+1  A-CH2+3 "
MeanCR0 [kHz]   :	      55.57378
MeanCR1 [kHz]   :	      56.94071
MeanCR2 [kHz]   :	      55.38199
MeanCR3 [kHz]   :	      54.80343

"Correlation"
  3.12500E-006	 -1.00000E+000	 -1.00000E+000	 -1.00000E+000	 -1.00000E+000
  6.25000E-006	 -1.00000E+000	 -1.00000E+000	 -1.00000E+000	 -1.00000E+000
  9.37500E-006	 -1.00000E+000	 -1.00000E+000	 -1.00000E+000	 -1.00000E+000
  1.25000E-005	 -1.00000E+000	 -1.00000E+000	 -1.00000E+000	 -1.00000E+000
  1.56250E-005	 -1.00000E+000	 -1.00000E+000	 -1.00000E+000	 -1.00000E+000
  1.87500E-005	 -1.00000E+000	 -1.00000E+000	 -1.00000E+000	 -1.00000E+000
  2.18750E-005	 -1.00000E+000	  9.87080E-001	  8.79401E-001	 -6.61301E-001
  2.50000E-005	  1.18456E+001	  1.18637E+001	  1.06081E+001	  2.66604E+001
  2.81250E-005	  3.72102E+000	  2.13749E+000	  1.98493E+000	  9.04806E+000
  3.12500E-005	  1.52520E+000	  6.73330E-001	  5.47742E-001	  4.98368E+000
  3.43750E-005	  1.30562E+000	  1.09166E+000	  1.65327E+000	  5.20947E+000
  3.75000E-005	  9.76242E-001	  5.68747E-001	  6.58295E-001	  4.08048E+000
  4.06250E-005	  1.08603E+000	  1.40541E+000	  1.21106E+000	  3.40308E+000
  4.37500E-005	  1.30562E+000	  1.19625E+000	  1.21106E+000	  3.17728E+000
  4.68750E-005	  1.96436E+000	  1.50415E-001	  1.10051E+000	  2.61279E+000
  5.00000E-005	  6.46868E-001	  3.07289E-001	  7.68848E-001	  1.99184E+000
  5.62500E-005	  8.11555E-001	  6.73330E-001	  6.58295E-001	  1.99184E+000
  6.25000E-005	  1.14093E+000	  3.59581E-001	  6.58295E-001	  1.54024E+000
  6.87500E-005	  9.21346E-001	  7.25622E-001	  5.47742E-001	  1.14509E+000
  7.50000E-005	  2.62599E-001	  4.64164E-001	  7.13571E-001	  1.20154E+000
  8.12500E-005	  4.27286E-001	  7.25622E-001	  7.13571E-001	  1.08864E+000
  8.75000E-005	  5.37077E-001	  6.21039E-001	  3.81912E-001	  4.11244E-001
  9.37500E-005	  2.07703E-001	  8.30205E-001	  3.81912E-001	  9.19292E-001
  1.00000E-004	  5.91973E-001	  5.42601E-001	  5.47742E-001	  1.14509E+000
  1.12500E-004	  3.99838E-001	  6.21038E-001	  5.75380E-001	  5.80593E-001
  1.25000E-004	  6.74316E-001	  3.85726E-001	  4.64827E-001	  2.13670E-001
  1.37500E-004	  3.44942E-001	  4.11872E-001	  5.75380E-001	  4.39469E-001
  1.50000E-004	  3.72390E-001	  5.16455E-001	  7.96486E-001	  5.24143E-001
  1.62500E-004	  3.44942E-001	  7.25622E-001	  7.96486E-001	  4.95919E-001
  1.75000E-004	  6.19420E-001	  4.11872E-001	  6.03018E-001	  7.78167E-001
  1.87500E-004	  5.91973E-001	  4.11872E-001	  8.24124E-001	  6.93493E-001
  2.00000E-004	  6.19420E-001	  3.72653E-001	  4.64826E-001	  6.51155E-001
  2.25000E-004	  3.99838E-001	  4.24945E-001	  6.44475E-001	  4.81806E-001
  2.50000E-004	  4.27285E-001	  6.60257E-001	  3.26635E-001	  4.25356E-001
  2.75000E-004	  6.60592E-001	  2.28852E-001	  4.37188E-001	  5.52368E-001
  3.00000E-004	  7.15487E-001	  3.46508E-001	  4.37188E-001	  3.40681E-001
  3.25000E-004	  4.13562E-001	  6.86403E-001	  8.79400E-001	  7.64055E-001
  3.50000E-004	  7.01763E-001	  4.24945E-001	  3.54274E-001	  6.65267E-001
  3.75000E-004	  4.27285E-001	  3.20362E-001	  8.65581E-001	  6.08818E-001
  4.00000E-004	  3.79251E-001	  3.79189E-001	  6.30655E-001	  6.58211E-001
  4.50000E-004	  3.99837E-001	  4.24944E-001	  4.30278E-001	  4.25355E-001
  5.00000E-004	  3.24356E-001	  3.98798E-001	  6.51384E-001	  4.18299E-001
  5.50000E-004	  6.12557E-001	  4.77236E-001	  5.06283E-001	  5.87648E-001
  6.00000E-004	  3.10632E-001	  4.64163E-001	  4.44097E-001	  3.68906E-001
  6.50000E-004	  5.30214E-001	  5.42600E-001	  4.64826E-001	  3.68906E-001
  7.00000E-004	  5.23352E-001	  5.81819E-001	  4.02640E-001	  3.97131E-001
  7.50000E-004	  3.44941E-001	  5.29527E-001	  4.64826E-001	  5.73536E-001
  8.00000E-004	  5.81677E-001	  4.83799E-001	  4.92463E-001	  4.92388E-001
  9.00000E-004	  5.71384E-001	  4.21701E-001	  4.78644E-001	  4.78276E-001
  1.00000E-003	  5.71384E-001	  4.96872E-001	  4.61370E-001	  4.78276E-001
  1.10000E-003	  4.16991E-001	  4.15165E-001	  4.95918E-001	  4.88860E-001
  1.20000E-003	  6.40004E-001	  4.28238E-001	  4.92463E-001	  4.99444E-001
  1.30000E-003	  3.79250E-001	  5.75310E-001	  4.44096E-001	  5.62950E-001
  1.40000E-003	  4.16991E-001	  4.21701E-001	  4.68279E-001	  5.77063E-001
  1.50000E-003	  5.06196E-001	  4.96872E-001	  4.57915E-001	  4.64163E-001
  1.60000E-003	  4.37574E-001	  4.05384E-001	  4.73459E-001	  4.53577E-001
  1.80000E-003	  4.30712E-001	  3.75969E-001	  4.40639E-001	  4.81801E-001
  2.00000E-003	  4.41005E-001	  4.34799E-001	  4.71732E-001	  3.98891E-001
  2.20000E-003	  4.35859E-001	  3.77577E-001	  3.64634E-001	  3.95363E-001
  2.40000E-003	  3.53515E-001	  4.13528E-001	  4.61367E-001	  4.81801E-001
  2.60000E-003	  4.61591E-001	  4.98503E-001	  3.80180E-001	  3.91835E-001
  2.80000E-003	  4.37574E-001	  4.70723E-001	  4.78641E-001	  4.02419E-001
  3.00000E-003	  3.79248E-001	  3.84114E-001	  4.64822E-001	  3.79487E-001
  3.20000E-003	  3.96398E-001	  4.10281E-001	  4.33752E-001	  4.76504E-001
  3.60000E-003	  3.86105E-001	  5.00977E-001	  4.89029E-001	  4.83560E-001
  4.00000E-003	  4.65017E-001	  3.86586E-001	  4.85574E-001	  4.58864E-001
  4.40000E-003	  4.57297E-001	  3.93123E-001	  3.80202E-001	  3.66278E-001
  4.80000E-003	  3.73239E-001	  4.11916E-001	  4.70891E-001	  4.90645E-001
  5.20000E-003	  3.60373E-001	  4.56855E-001	  4.03522E-001	  5.02112E-001
  5.60000E-003	  4.32423E-001	  3.08122E-001	  4.70027E-001	  4.80061E-001
  6.00000E-003	  4.14410E-001	  4.06987E-001	  3.45654E-001	  4.15672E-001
  6.40000E-003	  3.59558E-001	  3.46540E-001	  3.78924E-001	  4.22746E-001
  7.20000E-003	  3.83575E-001	  3.89845E-001	  3.98789E-001	  3.91875E-001
  8.00000E-003	  3.73711E-001	  4.14766E-001	  3.65078E-001	  4.48326E-001
  8.80000E-003	  4.07164E-001	  3.87394E-001	  3.84079E-001	  4.24951E-001
  9.60000E-003	  3.84004E-001	  3.79631E-001	  3.52148E-001	  4.05105E-001
  1.04000E-002	  3.55269E-001	  3.32650E-001	  3.36170E-001	  4.02900E-001
  1.12000E-002	  3.68564E-001	  3.93522E-001	  3.78060E-001	  3.79967E-001
  1.20000E-002	  3.48407E-001	  3.39570E-001	  3.46966E-001	  4.06869E-001
  1.28000E-002	  3.80042E-001	  3.52445E-001	  3.59118E-001	  3.64371E-001
  1.44000E-002	  3.48251E-001	  3.29159E-001	  3.68187E-001	  3.75150E-001
  1.60000E-002	  3.59188E-001	  3.20171E-001	  3.34285E-001	  4.00730E-001
  1.76000E-002	  3.27664E-001	  2.93617E-001	  3.42058E-001	  3.59052E-001
  1.92000E-002	  3.11794E-001	  3.46317E-001	  3.46161E-001	  3.32149E-001
  2.08000E-002	  2.87347E-001	  3.19559E-001	  3.34259E-001	  3.41631E-001
  2.24000E-002	  3.19729E-001	  3.23644E-001	  3.33611E-001	  3.22446E-001
  2.40000E-002	  2.89277E-001	  3.08937E-001	  3.01221E-001	  3.29723E-001
  2.56000E-002	  3.00303E-001	  3.03945E-001	  3.08279E-001	  3.01392E-001
  2.88000E-002	  2.79368E-001	  3.01086E-001	  2.61911E-001	  2.90586E-001
  3.20000E-002	  2.50178E-001	  2.87502E-001	  2.71304E-001	  2.60262E-001
  3.52000E-002	  2.35166E-001	  2.51448E-001	  2.44984E-001	  2.57285E-001
  3.84000E-002	  2.21310E-001	  2.21421E-001	  2.15293E-001	  2.28064E-001
  4.16000E-002	  2.12471E-001	  2.17131E-001	  2.26221E-001	  2.37854E-001
  4.48000E-002	  2.10970E-001	  2.28366E-001	  2.32159E-001	  2.37633E-001
  4.80000E-002	  2.18475E-001	  2.13965E-001	  1.79663E-001	  2.21865E-001
  5.12000E-002	  1.83657E-001	  1.86493E-001	  1.91612E-001	  2.00640E-001
  5.76000E-002	  1.68052E-001	  1.83145E-001	  1.71281E-001	  1.86423E-001
  6.40000E-002	  1.33572E-001	  1.47827E-001	  1.79649E-001	  1.43503E-001
  7.04000E-002	  1.30515E-001	  1.38073E-001	  1.53843E-001	  1.36368E-001
  7.68000E-002	  1.13355E-001	  1.21199E-001	  1.31653E-001	  1.29167E-001
  8.32000E-002	  1.17013E-001	  1.15092E-001	  1.30260E-001	  1.12108E-001
  8.96000E-002	  1.04176E-001	  1.04316E-001	  1.05103E-001	  8.44293E-002
  9.60000E-002	  7.75919E-002	  8.16415E-002	  9.00405E-002	  8.63250E-002
  1.02400E-001	  8.54593E-002	  6.50448E-002	  7.97313E-002	  8.26277E-002
  1.15200E-001	  5.91012E-002	  7.11159E-002	  7.17264E-002	  5.98441E-002
  1.28000E-001	  4.17158E-002	  5.74498E-002	  4.68710E-002	  5.74655E-002
  1.40800E-001	  3.99795E-002	  4.85641E-002	  4.66281E-002	  4.57882E-002
  1.53600E-001	  3.41474E-002	  3.27844E-002	  2.37368E-002	  2.79078E-002
  1.66400E-001	  2.19578E-002	  2.42497E-002	  1.51796E-002	  2.45396E-002
  1.79200E-001	  3.17857E-002	  2.04582E-002	  5.73152E-003	  1.19473E-002
  1.92000E-001	  3.12297E-002	  1.39217E-002	  5.04519E-003	  1.08640E-002
  2.04800E-001	  2.35869E-002	  2.40833E-002	  8.45159E-003	  8.12389E-003
  2.30400E-001	  2.35283E-002	  1.22914E-002	  8.56729E-003	 -1.96396E-003
  2.56000E-001	  3.65250E-003	  9.83241E-003	  5.52394E-003	  3.88822E-003
  2.81600E-001	  4.55840E-005	  1.10260E-002	 -1.42307E-003	  3.33102E-003
  3.07200E-001	 -3.35761E-003	  9.35246E-003	 -5.58366E-003	  3.37239E-003
  3.32800E-001	  1.02336E-003	  7.09136E-003	 -1.49057E-003	  8.40782E-004
  3.58400E-001	 -1.06801E-002	  1.20418E-003	  2.15242E-003	  9.70163E-004
  3.84000E-001	 -2.74736E-003	 -3.07273E-003	 -9.06692E-003	  4.21291E-003
  4.09600E-001	 -5.88444E-003	 -6.05962E-003	  5.60149E-004	  6.51781E-003
  4.60800E-001	 -1.21563E-004	 -1.13461E-002	  3.28616E-003	  2.34505E-003
  5.12000E-001	 -4.89306E-003	 -6.00655E-003	  4.12457E-003	  5.09824E-003
  5.63200E-001	 -3.85710E-003	 -5.38564E-003	  4.85869E-004	 -1.47179E-003
  6.14400E-001	 -2.31859E-004	  4.46601E-003	 -4.06511E-003	  3.54188E-003
  6.65600E-001	  2.88616E-003	 -2.97647E-003	  3.69970E-004	  3.94761E-003
  7.16800E-001	 -1.44363E-003	 -2.49210E-003	 -1.04789E-002	 -1.18364E-002
  7.68000E-001	  2.04532E-004	  1.64647E-004	 -8.44975E-003	 -1.21245E-002
  8.19200E-001	  5.78813E-003	  3.13634E-003	 -1.23275E-002	 -5.79112E-003
  9.21600E-001	  3.61022E-003	  1.18037E-003	 -7.05069E-004	 -1.02154E-003
  1.02400E+000	  5.83086E-003	  5.35113E-003	  2.58619E-003	  4.96078E-003
  1.12640E+000	  2.52217E-003	  2.74695E-003	  3.81031E-004	 -2.39761E-003
  1.22880E+000	  4.97439E-003	  2.61062E-003	  3.50744E-003	 -5.90665E-003
  1.33120E+000	  1.32235E-002	  2.26292E-003	  4.97703E-003	 -3.70454E-003
  1.43360E+000	 -2.58712E-003	  3.43885E-003	  1.57300E-002	  2.83787E-003
  1.53600E+000	  3.45962E-003	  3.13749E-003	  3.68788E-003	 -1.25147E-003
  1.63840E+000	  3.90442E-003	  3.03848E-003	  3.95341E-003	 -1.45070E-004
  1.84320E+000	  4.40723E-003	 -3.76974E-003	 -8.19534E-004	  9.94532E-003
  2.04800E+000	  6.71119E-004	 -7.71337E-003	 -1.99267E-003	  1.95197E-003
  2.25280E+000	  9.49959E-004	 -5.45939E-003	  5.37495E-003	  6.36906E-003
  2.45760E+000	  3.47173E-003	 -2.27684E-003	  4.80167E-003	  1.90143E-003
  2.66240E+000	 -1.99397E-003	  5.85063E-003	 -4.93391E-003	  7.40125E-004
  2.86720E+000	  3.63097E-003	  1.21163E-003	 -4.50888E-003	  5.44141E-003
  3.07200E+000	 -1.75741E-003	 -6.63497E-003	 -1.91718E-003	 -3.14140E-003
  3.27680E+000	 -4.43352E-003	  1.81370E-004	 -2.57487E-003	 -3.74642E-003
  3.68640E+000	 -5.72822E-004	 -1.31176E-003	 -2.01815E-003	  2.70477E-003
  4.09600E+000	 -5.98922E-004	 -2.24875E-003	  5.00584E-003	  3.20691E-003
  4.50560E+000	 -3.12530E-003	  3.29010E-003	 -1.75245E-004	 -1.93726E-004
  4.91520E+000	  8.71845E-004	 -3.64372E-003	  3.04811E-003	 -3.39298E-003
  5.32480E+000	 -2.62649E-004	  5.20332E-003	  1.68577E-003	  4.30963E-003
  5.73440E+000	  2.66444E-003	 -1.43860E-003	  3.54865E-003	  4.07018E-003
  6.14400E+000	  3.10125E-003	 -2.69240E-003	  2.84088E-004	 -7.32989E-004
  6.55360E+000	  1.94132E-003	 -2.67498E-003	 -5.28520E-003	 -3.20142E-004
  7.37280E+000	  3.42135E-003	 -1.22671E-003	 -8.43120E-004	  1.76658E-003
  8.19200E+000	 -3.47095E-004	 -2.57189E-003	 -1.76701E-003	  1.74236E-003
  9.01120E+000	 -6.37047E-003	  1.51967E-004	 -4.55183E-003	 -5.34045E-003
  9.83040E+000	 -1.98427E-003	 -2.74494E-003	 -4.41792E-004	 -1.08101E-003
  1.06496E+001	 -2.21662E-003	 -2.26198E-004	  6.36209E-004	  1.87855E-003
  1.14688E+001	  9.54365E-004	 -1.10072E-003	 -4.98149E-003	 -4.60175E-003
  1.22880E+001	 -2.39996E-003	  1.52201E-003	 -3.33652E-003	 -3.02385E-003
  1.31072E+001	  5.16712E-004	  5.43978E-003	 -1.72327E-003	 -1.77744E-003
  1.47456E+001	 -1.44970E-004	  6.75540E-004	 -8.05569E-004	  1.46099E-003
  1.63840E+001	 -2.89728E-003	 -1.34007E-003	 -1.84111E-004	 -2.51560E-003
  1.80224E+001	  2.57627E-003	 -5.88770E-004	 -2.45353E-003	 -5.02666E-004
  1.96608E+001	  1.94695E-003	 -5.36842E-005	  2.98174E-003	 -2.41473E-004
  2.12992E+001	  1.10912E-003	 -4.52514E-003	  6.64102E-004	  2.70140E-003
  2.29376E+001	  1.10925E-003	  2.06823E-003	 -3.96937E-004	 -4.90600E-004
  2.45760E+001	  1.51970E-003	 -1.86784E-003	  4.33974E-003	  5.44928E-004
  2.62144E+001	  3.03473E-004	 -1.39887E-003	  1.43494E-003	  1.23895E-003
  2.94912E+001	  9.28015E-004	 -9.28604E-004	  1.51900E-003	 -1.31487E-003
  3.27680E+001	 -2.48763E-004	  3.01235E-004	  1.99156E-003	  2.11967E-005
  3.60448E+001	  5.93820E-004	  9.90212E-004	 -2.30707E-005	 -4.13215E-004
  3.93216E+001	 -6.16785E-004	 -3.00090E-003	 -2.28854E-003	  1.19745E-003
  4.25984E+001	  1.57620E-003	  9.73791E-004	 -8.45348E-004	  1.16132E-003
  4.58752E+001	  1.10889E-003	  6.92826E-004	 -6.45662E-004	  1.76174E-003
  4.91520E+001	  4.30102E-004	  2.05436E-003	  1.13901E-003	 -6.58507E-004
  5.24288E+001	  8.80781E-004	 -3.90217E-004	  4.86969E-004	  5.97131E-004
  5.89824E+001	 -1.81821E-004	 -2.87388E-005	  1.85230E-003	 -2.22685E-005
  6.55360E+001	 -8.15559E-004	  9.55554E-004	 -1.40094E-003	  1.24489E-003
  7.20896E+001	  9.30119E-004	 -9.44739E-004	 -8.60912E-004	  1.10570E-003
  7.86432E+001	 -2.72088E-004	 -2.65772E-004	  1.03480E-003	  7.15225E-004
  8.51968E+001	  2.27725E-004	  3.68686E-004	 -2.00611E-003	 -1.86841E-003
  9.17504E+001	  7.59989E-004	 -1.55715E-003	  1.57272E-003	  1.11234E-004
  9.83040E+001	  4.09943E-004	 -1.07223E-003	  4.30264E-004	 -1.65285E-004
  1.04858E+002	  6.25727E-004	  1.01440E-003	 -1.13440E-003	 -4.47675E-004
  1.17965E+002	  7.74046E-004	  6.15543E-004	 -3.34324E-004	 -9.67285E-005
  1.31072E+002	  1.48542E-003	  1.68344E-005	  1.12207E-004	  1.28541E-003
  1.44179E+002	 -6.79593E-004	 -1.07109E-003	  4.48433E-005	 -9.59587E-004
  1.57286E+002	 -1.03393E-004	 -2.63639E-004	 -1.97739E-004	 -2.31900E-003
  1.70394E+002	  1.04012E-004	 -2.57696E-007	  1.07894E-003	  4.80042E-004
  1.83501E+002	 -5.78965E-004	 -6.07283E-004	  1.48137E-003	 -1.68285E-003
  1.96608E+002	 -1.57016E-003	 -5.74065E-004	  1.84718E-005	 -3.36465E-004
  2.09715E+002	 -1.07882E-003	  3.95298E-004	 -5.29269E-004	 -9.54400E-004
  2.35930E+002	 -7.80774E-004	  1.11842E-003	 -3.88095E-004	 -3.23299E-004
  2.62144E+002	 -5.49728E-004	 -5.79471E-004	  2.59660E-004	 -1.04195E-003
  2.88358E+002	 -2.52634E-004	 -2.73731E-004	 -1.72592E-004	 -5.72066E-004
  3.14573E+002	 -5.90462E-004	 -1.35284E-003	  2.99592E-005	 -7.36984E-005
  3.40787E+002	  1.81009E-004	  9.74752E-004	  1.81173E-004	 -8.83150E-004
  3.67002E+002	  4.42413E-004	 -1.52657E-005	 -3.05865E-004	  1.63461E-004
  3.93216E+002	  1.00406E-003	 -2.61294E-004	 -7.50124E-004	  7.31517E-004

"Count Rate"
       0.01311	      53.55835	      64.77356	      55.54199	      56.76270
       0.02621	      57.52563	      50.04883	      58.51746	      53.40576
       0.03932	      48.29407	      52.71912	      50.65918	      59.43298
       0.05243	      57.75452	      48.90442	      52.64282	      48.59924
       0.06554	      59.66187	      53.17688	      52.79541	      62.17957
       0.07864	      50.43030	      55.38940	      54.47388	      55.84717
       0.09175	      54.93164	      58.21228	      58.82263	      50.04883
       0.10486	      54.01611	      55.54199	      48.21777	      55.99976
       0.11796	      53.32947	      54.32129	      51.87988	      48.29407
       0.13107	      56.45752	      55.69458	      52.49023	      54.93164
       0.14418	      57.98340	      56.76270	      56.76270	      51.19324
       0.15729	      56.91528	      60.27222	      52.49023	      51.34583
       0.17039	      54.62646	      49.51477	      52.03247	      56.91528
       0.18350	      51.42212	      58.67004	      57.75452	      48.59924
       0.19661	      59.43298	      55.84717	      49.20959	      53.40576
       0.20972	      53.93982	      59.89075	      58.36487	      54.09241
       0.22282	      57.14417	      54.01611	      49.05701	      47.45483
       0.23593	      55.77087	      61.26404	      54.32129	      50.35400
       0.24904	      61.79810	      60.11963	      54.32129	      50.65918
       0.26214	      65.38391	      61.72180	      55.00793	      47.07336
       0.27525	      59.58557	      49.81995	      52.26135	      50.58289
       0.28836	      53.48206	      62.86621	      49.97253	      54.09241
       0.30147	      53.40576	      51.42212	      54.77905	      59.66187
       0.31457	      58.44116	      52.64282	      50.50659	      54.77905
       0.32768	      51.11694	      61.11145	      47.91260	      49.81995
       0.34079	      57.90710	      49.66736	      47.53113	      56.83899
       0.35389	      61.49292	      52.49023	      56.53381	      53.40576
       0.36700	      54.09241	      54.16870	      50.43030	      66.68091
       0.38011	      50.65918	      60.27222	      58.36487	      59.43298
       0.39322	      53.55835	      62.17957	      57.22046	      50.96436
       0.40632	      53.78723	      48.82813	      58.89893	      55.77087
       0.41943	      48.44666	      47.60742	      54.16870	      57.90710
       0.43254	      53.63464	      57.22046	      52.33765	      54.93164
       0.44564	      53.25317	      57.60193	      66.45203	      56.45752
       0.45875	      47.14966	      58.21228	      55.61829	      49.20959
       0.47186	      57.14417	      54.62646	      59.12781	      58.21228
       0.48497	      58.36487	      59.81445	      47.45483	      53.86353
       0.49807	      47.91260	      54.16870	      58.44116	      60.65369
       0.51118	      46.69189	      61.26404	      46.92078	      55.77087
       0.52429	      54.62646	      50.58289	      56.76270	      49.59106
       0.53740	      50.96436	      47.60742	      57.83081	      53.40576
       0.55050	      50.12512	      58.59375	      51.80359	      54.32129
       0.56361	      54.01611	      54.93164	      50.50659	      53.48206
       0.57672	      52.03247	      52.79541	      62.10327	      47.98889
       0.58982	      60.27222	      57.06787	      53.32947	      56.38123
       0.60293	      51.95618	      61.56921	      56.91528	      58.05969
       0.61604	      66.07056	      63.62915	      54.77905	      51.19324
       0.62915	      46.23413	      55.99976	      63.01880	      51.26953
       0.64225	      59.20410	      56.15234	      57.98340	      53.71094
       0.65536	      56.07605	      54.77905	      55.77087	      45.08972
       0.66847	      52.18506	      62.86621	      53.55835	      55.31311
       0.68157	      47.83630	      54.47388	      46.76819	      53.25317
       0.69468	      53.32947	      54.77905	      55.46570	      52.56653
       0.70779	      52.26135	      59.73816	      57.06787	      49.97253
       0.72090	      59.28040	      62.78992	      57.44934	      53.02429
       0.73400	      51.11694	      56.68640	      56.61011	      54.55017
       0.74711	      58.28857	      53.55835	      48.75183	      50.27771
       0.76022	      59.89075	      52.41394	      66.83350	      57.14417
       0.77332	      56.61011	      52.10876	      48.21777	      48.67554
       0.78643	      47.76001	      54.55017	      55.23682	      53.86353
       0.79954	      53.48206	      55.54199	      54.70276	      51.57471
       0.81265	      52.41394	      57.37305	      56.53381	      59.81445
       0.82575	      52.64282	      56.07605	      49.36218	      52.49023
       0.83886	      51.57471	      55.46570	      53.48206	      56.61011
       0.85197	      57.37305	      56.76270	      61.11145	      54.01611
       0.86508	      54.47388	      52.56653	      58.44116	      59.12781
       0.87818	      54.93164	      57.52563	      53.02429	      55.23682
       0.89129	      46.84448	      58.05969	      58.44116	      48.98071
       0.90440	      56.15234	      55.54199	      49.20959	      54.77905
       0.91750	      56.83899	      61.79810	      55.00793	      58.82263
       0.93061	      63.78174	      51.34583	      55.61829	      55.38940

Monitor Diode	      1.00
