ALV-7004/USB-FAST
Date :	"11/11/2025"
Time :	"3:54:20 PM"
Samplename : 	""
SampMemo(0) : 	""
SampMemo(1) : 	""
SampMemo(2) : 	""
SampMemo(3) : 	""
SampMemo(4) : 	""
SampMemo(5) : 	""
SampMemo(6) : 	""
SampMemo(7) : 	""
SampMemo(8) : 	""
SampMemo(9) : 	""
Temperature [K] :	     298.16000
Viscosity [cp]  :	       0.89000
Refractive Index:	       1.33200
Wavelength [nm] :	       0.00000
Angle [°]       :	       0.00000
Duration [s]    :	         1
FloatDur [ms]   :	          944
Stop TP [ms]   :	     60217
Runs            :	         1
Mode            :	"A-CH0+1  A-CH2+3 "
MeanCR0 [kHz]   :	      54.54170
MeanCR1 [kHz]   :	      53.44073
MeanCR2 [kHz]   :	      50.03081
MeanCR3 [kHz]   :	      52.12360

"Correlation"
  3.12500E-006	 -1.00000E+000	 -1.00000E+000	 -1.00000E+000	 -1.00000E+000
  6.25000E-006	 -1.00000E+000	 -1.00000E+000	 -1.00000E+000	 -1.00000E+000
  9.37500E-006	 -1.00000E+000	 -1.00000E+000	 -1.00000E+000	 -1.00000E+000
  1.25000E-005	 -1.00000E+000	 -1.00000E+000	 -1.00000E+000	 -1.00000E+000
  1.56250E-005	 -1.00000E+000	 -1.00000E+000	 -1.00000E+000	 -1.00000E+000
  1.87500E-005	 -1.00000E+000	 -1.00000E+000	 -1.00000E+000	 -1.00000E+000
  2.18750E-005	 -1.00000E+000	  7.80959E-001	  1.70933E+000	 -7.50386E-001
  2.50000E-005	  1.38181E+001	  1.25353E+001	  1.44432E+001	  2.50847E+001
  2.81250E-005	  2.64754E+000	  1.49334E+000	  2.79307E+000	  9.60859E+000
  3.12500E-005	  1.73566E+000	  7.80959E-001	  1.16747E+000	  4.49151E+000
  3.43750E-005	  1.73566E+000	  1.13715E+000	  1.03200E+000	  3.36824E+000
  3.75000E-005	  1.16573E+000	  1.87306E-001	  6.25600E-001	  4.11708E+000
  4.06250E-005	  8.23771E-001	 -5.01550E-002	  7.61066E-001	  3.36824E+000
  4.37500E-005	  1.73566E+000	  6.62229E-001	  8.96533E-001	  2.49459E+000
  4.68750E-005	  4.81814E-001	  1.25588E+000	  1.03200E+000	  2.86902E+000
  5.00000E-005	  1.67866E+000	  2.46672E-001	  6.93333E-001	  2.49459E+000
  5.62500E-005	  1.22272E+000	  6.02863E-001	  6.93333E-001	  2.05777E+000
  6.25000E-005	  9.94749E-001	  4.84133E-001	  7.61066E-001	  1.74575E+000
  6.87500E-005	  9.94749E-001	  1.87306E-001	  8.28800E-001	  7.47297E-001
  7.50000E-005	  7.09785E-001	  4.24767E-001	  9.64266E-001	  1.43374E+000
  8.12500E-005	  3.10835E-001	  8.99690E-001	  8.37331E-002	  9.34507E-001
  8.75000E-005	  8.80764E-001	  7.80959E-001	  6.25600E-001	  1.05931E+000
  9.37500E-005	  7.09785E-001	  8.40325E-001	  8.96533E-001	  1.43374E+000
  1.00000E-004	  3.96324E-001	  2.16989E-001	  6.59466E-001	  8.40902E-001
  1.12500E-004	  5.10310E-001	  5.13815E-001	  4.90133E-001	  4.97683E-001
  1.25000E-004	  4.24821E-001	  2.16989E-001	  6.93333E-001	  6.22490E-001
  1.37500E-004	  6.24296E-001	  4.84133E-001	  3.88533E-001	  7.16095E-001
  1.50000E-004	  3.96324E-001	  3.65402E-001	  9.64266E-001	  6.22490E-001
  1.62500E-004	  4.53317E-001	  8.10642E-001	  4.22400E-001	  7.16095E-001
  1.75000E-004	  1.96849E-001	  8.10642E-001	  3.88533E-001	  8.09700E-001
  1.87500E-004	  7.09785E-001	  3.95085E-001	  9.30399E-001	  4.04078E-001
  2.00000E-004	  6.67040E-001	  5.13815E-001	  7.10266E-001	  4.82082E-001
  2.25000E-004	  6.24295E-001	  7.21593E-001	  5.57866E-001	  5.60086E-001
  2.50000E-004	  4.96061E-001	  4.39608E-001	  8.45732E-001	  5.28884E-001
  2.75000E-004	  8.38018E-001	  5.73180E-001	  3.03866E-001	  7.00494E-001
  3.00000E-004	  2.82338E-001	  7.80959E-001	  2.69999E-001	  4.35279E-001
  3.25000E-004	  4.81813E-001	  5.28656E-001	  2.86933E-001	  5.75687E-001
  3.50000E-004	  5.24558E-001	  5.28656E-001	  4.22399E-001	  2.79271E-001
  3.75000E-004	  6.24295E-001	  4.09926E-001	  3.88533E-001	  5.75687E-001
  4.00000E-004	  4.39068E-001	  3.06036E-001	  3.37732E-001	  5.21083E-001
  4.50000E-004	  4.10572E-001	  5.65759E-001	  4.05465E-001	  3.88476E-001
  5.00000E-004	  5.31681E-001	  4.47028E-001	  6.00199E-001	  4.58680E-001
  5.50000E-004	  4.96061E-001	  6.91910E-001	  5.15532E-001	  4.35279E-001
  6.00000E-004	  5.60178E-001	  3.43139E-001	  5.07065E-001	  5.05482E-001
  6.50000E-004	  6.67039E-001	  5.06394E-001	  4.73199E-001	  4.35279E-001
  7.00000E-004	  7.73901E-001	  2.54091E-001	  5.07065E-001	  6.22489E-001
  7.50000E-004	  5.60178E-001	  3.72822E-001	  5.83265E-001	  4.27478E-001
  8.00000E-004	  5.31680E-001	  4.21055E-001	  3.75831E-001	  5.32783E-001
  9.00000E-004	  5.03184E-001	  5.69468E-001	  4.30864E-001	  5.28883E-001
  1.00000E-003	  6.17169E-001	  4.58158E-001	  3.92764E-001	  5.13282E-001
  1.10000E-003	  4.74687E-001	  3.80241E-001	  4.90131E-001	  5.60084E-001
  1.20000E-003	  5.38804E-001	  4.72999E-001	  4.05464E-001	  5.13282E-001
  1.30000E-003	  4.81811E-001	  4.35896E-001	  3.12331E-001	  4.78180E-001
  1.40000E-003	  5.67300E-001	  5.36075E-001	  5.23997E-001	  4.70379E-001
  1.50000E-003	  4.81811E-001	  4.72999E-001	  3.92764E-001	  6.06887E-001
  1.60000E-003	  5.35240E-001	  5.45348E-001	  4.16045E-001	  5.23030E-001
  1.80000E-003	  4.76466E-001	  4.45170E-001	  4.20278E-001	  4.80127E-001
  2.00000E-003	  5.12086E-001	  4.30328E-001	  3.86412E-001	  5.13310E-001
  2.20000E-003	  4.97838E-001	  4.43314E-001	  4.54145E-001	  4.97709E-001
  2.40000E-003	  4.88933E-001	  4.76707E-001	  4.43562E-001	  5.38662E-001
  2.60000E-003	  5.44145E-001	  3.72818E-001	  4.98595E-001	  4.19703E-001
  2.80000E-003	  5.86889E-001	  4.00646E-001	  4.77428E-001	  5.48412E-001
  3.00000E-003	  5.67298E-001	  4.09922E-001	  4.73195E-001	  4.37254E-001
  3.20000E-003	  5.83322E-001	  3.85800E-001	  4.79540E-001	  4.65526E-001
  3.60000E-003	  4.55979E-001	  5.11023E-001	  4.25565E-001	  4.88928E-001
  4.00000E-003	  4.64884E-001	  4.07134E-001	  5.27165E-001	  5.20130E-001
  4.40000E-003	  4.83585E-001	  4.54440E-001	  4.60490E-001	  5.57183E-001
  4.80000E-003	  5.09410E-001	  5.29574E-001	  4.74248E-001	  4.53826E-001
  5.20000E-003	  4.65775E-001	  4.29396E-001	  5.20815E-001	  4.53826E-001
  5.60000E-003	  4.25702E-001	  5.15661E-001	  5.00706E-001	  4.90878E-001
  6.00000E-003	  5.59278E-001	  4.39599E-001	  4.56257E-001	  4.14823E-001
  6.40000E-003	  5.20085E-001	  4.56286E-001	  4.43018E-001	  4.64541E-001
  7.20000E-003	  4.25692E-001	  4.49793E-001	  4.16560E-001	  4.43090E-001
  8.00000E-003	  4.78677E-001	  4.50256E-001	  4.53072E-001	  4.93306E-001
  8.80000E-003	  5.06283E-001	  4.43763E-001	  4.53632E-001	  4.86968E-001
  9.60000E-003	  4.77787E-001	  4.28922E-001	  4.35640E-001	  4.95256E-001
  1.04000E-002	  4.84939E-001	  5.23535E-001	  4.36698E-001	  4.77217E-001
  1.12000E-002	  4.55998E-001	  4.93852E-001	  4.90674E-001	  5.07932E-001
  1.20000E-002	  4.51545E-001	  4.75765E-001	  3.86427E-001	  4.77705E-001
  1.28000E-002	  4.68222E-001	  4.59512E-001	  4.58498E-001	  4.75978E-001
  1.44000E-002	  5.11412E-001	  4.82006E-001	  4.75697E-001	  4.90360E-001
  1.60000E-002	  5.00058E-001	  4.66005E-001	  5.01131E-001	  4.57452E-001
  1.76000E-002	  4.94715E-001	  4.73658E-001	  4.65673E-001	  4.41852E-001
  1.92000E-002	  4.92489E-001	  4.20555E-001	  4.02432E-001	  4.92554E-001
  2.08000E-002	  4.68222E-001	  4.44440E-001	  4.69643E-001	  4.65497E-001
  2.24000E-002	  4.58649E-001	  4.49541E-001	  4.34745E-001	  5.08155E-001
  2.40000E-002	  4.91375E-001	  4.75745E-001	  4.46388E-001	  4.60378E-001
  2.56000E-002	  4.73443E-001	  4.89850E-001	  4.56589E-001	  4.79655E-001
  2.88000E-002	  4.79231E-001	  4.41038E-001	  4.38298E-001	  4.38610E-001
  3.20000E-002	  4.84240E-001	  4.50197E-001	  4.39855E-001	  4.60793E-001
  3.52000E-002	  4.59446E-001	  4.44980E-001	  4.47366E-001	  4.54211E-001
  3.84000E-002	  4.81931E-001	  4.62024E-001	  4.17169E-001	  4.62865E-001
  4.16000E-002	  4.75252E-001	  4.40111E-001	  4.09128E-001	  4.65546E-001
  4.48000E-002	  4.54687E-001	  4.26082E-001	  4.30430E-001	  4.51286E-001
  4.80000E-002	  4.60698E-001	  4.29037E-001	  4.05189E-001	  4.43149E-001
  5.12000E-002	  4.61845E-001	  4.15800E-001	  4.15973E-001	  4.42118E-001
  5.76000E-002	  4.63292E-001	  4.42640E-001	  4.17561E-001	  4.42788E-001
  6.40000E-002	  4.62568E-001	  4.39538E-001	  4.24574E-001	  4.24013E-001
  7.04000E-002	  4.58171E-001	  4.34089E-001	  4.11510E-001	  4.35930E-001
  7.68000E-002	  4.47625E-001	  4.00292E-001	  4.09694E-001	  4.13318E-001
  8.32000E-002	  4.46456E-001	  4.14089E-001	  3.98086E-001	  4.17584E-001
  8.96000E-002	  4.54304E-001	  4.01509E-001	  3.91147E-001	  4.14110E-001
  9.60000E-002	  4.29313E-001	  4.14089E-001	  3.82414E-001	  4.20875E-001
  1.02400E-001	  4.27655E-001	  4.02310E-001	  3.75131E-001	  4.01049E-001
  1.15200E-001	  4.23564E-001	  3.96832E-001	  3.57435E-001	  3.96203E-001
  1.28000E-001	  4.03944E-001	  3.93698E-001	  3.65867E-001	  3.89835E-001
  1.40800E-001	  4.02442E-001	  3.68306E-001	  3.45884E-001	  3.76550E-001
  1.53600E-001	  3.88277E-001	  3.60915E-001	  3.45241E-001	  3.70239E-001
  1.66400E-001	  3.73750E-001	  3.39407E-001	  3.27805E-001	  3.63196E-001
  1.79200E-001	  3.65040E-001	  3.44683E-001	  3.23613E-001	  3.43422E-001
  1.92000E-001	  3.46311E-001	  3.29146E-001	  3.00839E-001	  3.39217E-001
  2.04800E-001	  3.43638E-001	  3.23222E-001	  2.94247E-001	  3.27923E-001
  2.30400E-001	  3.21489E-001	  3.03508E-001	  2.78643E-001	  3.03955E-001
  2.56000E-001	  3.00521E-001	  2.90128E-001	  2.60912E-001	  2.82722E-001
  2.81600E-001	  2.93553E-001	  2.71771E-001	  2.53853E-001	  2.63125E-001
  3.07200E-001	  2.71139E-001	  2.60525E-001	  2.35402E-001	  2.59071E-001
  3.32800E-001	  2.59476E-001	  2.50478E-001	  2.25881E-001	  2.41617E-001
  3.58400E-001	  2.45980E-001	  2.33522E-001	  2.14838E-001	  2.31221E-001
  3.84000E-001	  2.32706E-001	  2.21798E-001	  2.01453E-001	  2.23112E-001
  4.09600E-001	  2.19886E-001	  2.08272E-001	  1.87541E-001	  2.04739E-001
  4.60800E-001	  1.94327E-001	  1.83010E-001	  1.68720E-001	  1.93370E-001
  5.12000E-001	  1.82793E-001	  1.71450E-001	  1.51489E-001	  1.75077E-001
  5.63200E-001	  1.60609E-001	  1.52654E-001	  1.39150E-001	  1.50667E-001
  6.14400E-001	  1.48928E-001	  1.39106E-001	  1.22179E-001	  1.42773E-001
  6.65600E-001	  1.37834E-001	  1.28500E-001	  1.09013E-001	  1.23833E-001
  7.16800E-001	  1.20784E-001	  1.12065E-001	  9.34160E-002	  1.02064E-001
  7.68000E-001	  1.07973E-001	  9.96119E-002	  9.08324E-002	  9.47384E-002
  8.19200E-001	  9.69330E-002	  9.52376E-002	  7.87804E-002	  9.09593E-002
  9.21600E-001	  7.76073E-002	  7.98563E-002	  6.12850E-002	  6.63838E-002
  1.02400E+000	  6.33556E-002	  6.62383E-002	  3.87593E-002	  4.58985E-002
  1.12640E+000	  5.19609E-002	  6.17833E-002	  2.94002E-002	  2.60551E-002
  1.22880E+000	  4.02497E-002	  4.75204E-002	  2.54479E-002	  2.12578E-002
  1.33120E+000	  3.04246E-002	  4.20008E-002	  2.12061E-002	  1.25016E-002
  1.43360E+000	  1.97475E-002	  3.30270E-002	  2.11476E-002	  7.25901E-003
  1.53600E+000	  1.74187E-002	  3.12965E-002	  1.84054E-002	 -6.93309E-005
  1.63840E+000	  1.18361E-002	  2.40471E-002	  1.96160E-002	 -2.79701E-003
  1.84320E+000	  4.78663E-003	  1.43615E-002	  1.43178E-002	  5.30321E-003
  2.04800E+000	  6.83598E-003	  1.18652E-002	  1.38157E-003	  1.10339E-002
  2.25280E+000	  8.32955E-003	  7.25037E-003	 -1.54182E-002	  1.94215E-002
  2.45760E+000	  1.20206E-002	 -2.30566E-003	 -2.21290E-002	  2.21570E-002
  2.66240E+000	  2.36702E-002	 -5.15844E-003	 -3.12811E-002	  1.82476E-002
  2.86720E+000	  2.95098E-002	 -7.74798E-003	 -3.16261E-002	  1.89551E-002
  3.07200E+000	  2.26991E-002	 -4.38703E-003	 -3.08490E-002	  1.49567E-002
  3.27680E+000	  1.37636E-002	  2.75863E-003	 -1.60030E-002	  1.62090E-002
  3.68640E+000	  1.14444E-002	 -5.94508E-003	 -1.75053E-002	  4.88026E-003
  4.09600E+000	  1.34523E-002	 -4.86497E-003	  4.16600E-003	  8.01576E-003
  4.50560E+000	  8.69952E-003	  1.28844E-003	 -2.71903E-003	 -1.28904E-003
  4.91520E+000	  2.56123E-003	  1.00075E-003	 -1.16592E-002	  1.29087E-003
  5.32480E+000	  3.15278E-004	 -8.40654E-003	 -1.11992E-002	  3.41695E-003
  5.73440E+000	  1.16184E-003	 -1.38161E-002	 -7.65006E-003	  3.61174E-003
  6.14400E+000	 -1.15874E-003	 -5.33814E-003	 -9.87914E-003	  1.47301E-002
  6.55360E+000	 -4.25204E-003	 -3.22298E-003	 -1.46974E-002	  1.29855E-002
  7.37280E+000	 -1.47143E-003	 -3.62938E-003	 -1.44635E-002	  2.55979E-003
  8.19200E+000	 -2.79400E-003	 -2.72853E-004	 -1.22019E-002	  5.43681E-003
  9.01120E+000	  1.30401E-002	 -1.87417E-002	 -5.84051E-003	  2.22834E-003
  9.83040E+000	  3.48754E-002	 -3.10475E-003	 -6.95814E-003	  3.80412E-003
  1.06496E+001	  1.39600E-002	  2.07318E-003	 -1.26053E-003	 -1.36825E-003
  1.14688E+001	  1.17515E-002	  1.64304E-002	  7.81182E-004	 -3.57799E-003
  1.22880E+001	  1.32649E-002	 -9.40031E-004	 -3.81529E-003	  8.51500E-004
  1.31072E+001	  2.44712E-003	 -5.45719E-003	  2.64446E-003	  1.02404E-002
  1.47456E+001	 -9.39330E-003	 -1.98449E-003	  6.82951E-003	 -5.08131E-003
  1.63840E+001	  2.58386E-003	 -6.27246E-003	  2.92720E-003	 -2.94158E-003
  1.80224E+001	 -9.54360E-003	  1.70825E-003	  9.01558E-003	 -8.52151E-003
  1.96608E+001	 -2.27370E-003	  2.58420E-003	  2.39315E-002	 -1.07359E-002
  2.12992E+001	  3.08331E-003	  1.68972E-003	  3.76266E-003	  7.72578E-003
  2.29376E+001	 -5.03496E-004	  3.15161E-004	  5.75779E-003	 -1.14230E-002
  2.45760E+001	  5.12604E-003	  4.90504E-003	  1.77486E-002	 -2.02619E-002
  2.62144E+001	 -3.35712E-003	  1.03538E-002	  6.10376E-003	  5.21954E-003
  2.94912E+001	 -9.55420E-003	 -7.73631E-003	 -6.61730E-003	  1.19369E-002
  3.27680E+001	 -7.84065E-004	 -5.97865E-003	 -1.44003E-002	  1.76205E-004
  3.60448E+001	 -1.24070E-002	  1.84412E-004	  4.64953E-003	  3.69115E-003
  3.93216E+001	 -9.53563E-003	  9.42956E-003	  6.69597E-003	 -1.25872E-002
  4.25984E+001	 -1.26426E-002	 -1.33802E-002	  3.49718E-003	 -6.67777E-003
  4.58752E+001	 -3.68309E-003	  4.16907E-003	 -8.16061E-003	  7.66878E-004
  4.91520E+001	  2.18928E-002	 -6.05349E-003	  4.81844E-003	 -4.67260E-003
  5.24288E+001	  1.47402E-002	 -4.42585E-003	  3.05139E-003	  3.98479E-003
  5.89824E+001	  5.63635E-003	  6.97630E-003	  3.31094E-003	  1.58640E-003
  6.55360E+001	  3.64515E-003	 -4.28997E-003	  4.12021E-003	  6.67579E-004
  7.20896E+001	 -9.00800E-004	 -1.27518E-003	  1.93058E-003	  1.68395E-003
  7.86432E+001	 -3.83693E-003	 -1.97851E-003	 -2.73596E-003	  5.30690E-003
  8.51968E+001	 -5.01745E-003	  2.74392E-003	 -2.00421E-003	  3.94726E-003
  9.17504E+001	 -5.37500E-003	 -6.25215E-003	 -1.04048E-003	 -8.19114E-004
  9.83040E+001	 -4.52574E-003	 -1.16789E-002	 -1.08253E-002	 -2.03788E-003
  1.04858E+002	  2.52861E-003	  1.76387E-003	 -4.88145E-003	 -1.96825E-003
  1.17965E+002	 -3.56579E-003	 -1.25293E-003	 -5.49745E-003	 -7.05859E-003
  1.31072E+002	  5.25232E-003	  1.31111E-003	 -3.18650E-003	 -8.72994E-004
  1.44179E+002	  6.67643E-003	 -3.29011E-003	  1.11614E-003	 -4.59508E-003
  1.57286E+002	  3.87556E-003	  4.74647E-003	  3.08721E-003	  1.43643E-003
  1.70394E+002	 -1.02731E-002	 -1.26539E-003	 -6.91651E-004	  2.54240E-003
  1.83501E+002	 -8.31296E-003	 -3.98611E-003	 -4.94031E-003	  1.82986E-003
  1.96608E+002	 -2.57680E-003	 -4.56526E-003	  2.38735E-003	  3.01859E-003
  2.09715E+002	 -2.71877E-003	 -1.18390E-003	  1.97632E-003	  2.22569E-003
  2.35930E+002	  1.57798E-003	 -1.09288E-003	 -4.61119E-003	 -5.49216E-003
  2.62144E+002	  5.66217E-003	 -3.37370E-004	 -2.49752E-003	  4.01444E-003
  2.88358E+002	 -7.93270E-003	  1.64179E-003	 -9.42494E-004	  4.38640E-003
  3.14573E+002	  1.15507E-003	 -2.58584E-003	  2.73439E-003	  4.81564E-004
  3.40787E+002	  1.61160E-004	 -9.24014E-005	  5.07104E-004	 -3.86456E-003
  3.67002E+002	  4.57687E-003	  2.35692E-003	  3.78360E-003	  4.92738E-003
  3.93216E+002	  4.75216E-003	 -5.30481E-004	 -7.69356E-004	 -6.43489E-003

"Count Rate"
       0.01311	      33.56934	      59.12781	      43.02979	      63.78174
       0.02621	      39.44397	      32.80640	      43.64014	      50.04883
       0.03932	      41.04614	      36.54480	      51.26953	      44.63196
       0.05243	      57.37305	      33.56934	      53.78723	      44.70825
       0.06554	      58.05969	      50.27771	      44.47937	      52.03247
       0.07864	      47.22595	      55.92346	      62.63733	      60.95886
       0.09175	      55.61829	      33.18787	      50.88806	      63.40027
       0.10486	      95.67261	      48.75183	      47.98889	      42.87720
       0.11796	      74.92065	      64.01062	      66.07056	      76.67542
       0.13107	      45.01343	      61.41663	      58.74634	      73.01331
       0.14418	      48.67554	      46.31042	      63.62915	      49.43848
       0.15729	      56.22864	      47.07336	      47.83630	      39.06250
       0.17039	      93.68896	      66.22314	      37.76550	      57.90710
       0.18350	      31.96716	      52.33765	      49.20959	      51.72729
       0.19661	      54.77905	      60.88257	      46.69189	      57.90710
       0.20972	      39.82544	      62.86621	      37.61292	      47.60742
       0.22282	      54.85535	      67.13867	      46.76819	      53.02429
       0.23593	      37.91809	      63.17139	      38.22327	      28.76282
       0.24904	      76.44653	      50.04883	      40.20691	      47.60742
       0.26214	      58.36487	      46.00525	      45.24231	      52.64282
       0.27525	      54.01611	      46.53931	      55.61829	      67.29126
       0.28836	      41.73279	      41.35132	      53.63464	      55.08423
       0.30147	      44.40308	      80.33752	      42.64832	      56.99158
       0.31457	      53.48206	      54.39758	      54.16870	      51.87988
       0.32768	      68.58826	      53.02429	      46.76819	      63.32397
       0.34079	      37.38403	      52.79541	      48.59924	      55.23682
       0.35389	      44.63196	      47.14966	      48.29407	      58.59375
       0.36700	      55.46570	      46.61560	      43.02979	      58.13599
       0.38011	      58.36487	      74.08142	      59.50928	      52.18506
       0.39322	      47.30225	      41.04614	      40.89355	      38.29956
       0.40632	      35.70557	      47.45483	      41.42761	      46.46301
       0.41943	      40.13062	      52.49023	      53.17688	      44.25049
       0.43254	      54.93164	      54.85535	      62.02698	      61.87439
       0.44564	      59.58557	      50.88806	      62.71362	      52.26135
       0.45875	      58.44116	      61.72180	      55.08423	      53.48206
       0.47186	      63.01880	      46.61560	      53.32947	      43.25867
       0.48497	      58.89893	      43.71643	      53.55835	      45.70007
       0.49807	      60.04333	      51.57471	      53.55835	      65.61279
       0.51118	      58.05969	      63.78174	      53.55835	      47.22595
       0.52429	      61.87439	      44.63196	      52.64282	      42.87720
       0.53740	      51.11694	      49.59106	      50.43030	      60.04333
       0.55050	      50.35400	      54.55017	      39.29138	      65.30762
       0.56361	      57.90710	      52.18506	      40.35950	      50.88806
       0.57672	      55.77087	      60.11963	      50.88806	      61.56921
       0.58982	      58.13599	      53.40576	      56.83899	      43.33496
       0.60293	      60.04333	      58.28857	      48.21777	      53.55835
       0.61604	      67.29126	      49.51477	      43.79272	      56.45752
       0.62915	      55.00793	      45.08972	      46.69189	      58.28857
       0.64225	      55.08423	      43.33496	      49.43848	      45.54749
       0.65536	      54.39758	      51.95618	      64.54468	      57.90710
       0.66847	      39.74915	      58.74634	      41.73279	      45.85266
       0.68157	      46.46301	      47.76001	      55.92346	      39.52026
       0.69468	      55.54199	      46.76819	      53.48206	      40.28320
       0.70779	      79.19312	      55.99976	      53.55835	      51.11694
       0.72090	      48.67554	      64.77356	      46.00525	      44.40308
       0.73400	      56.22864	      58.13599	      50.35400	      50.20142
       0.74711	      58.13599	      47.14966	      48.14148	      55.69458
       0.76022	      57.67822	      80.71899	      40.35950	      46.92078
       0.77332	      52.33765	      44.25049	      48.90442	      38.14697
       0.78643	      50.58289	      44.17419	      50.50659	      39.13879
       0.79954	      48.14148	      44.02161	      51.11694	      44.86084
       0.81265	      43.56384	      33.95081	      43.18237	      42.11426
       0.82575	      47.91260	      72.09778	      44.47937	      62.25586
       0.83886	      74.08142	      54.01611	      38.37585	      49.05701
       0.85197	      44.55566	      50.12512	      59.05151	      47.14966
       0.86508	      35.78186	      61.49292	      46.08154	      45.24231
       0.87818	      47.22595	      53.86353	      49.20959	      40.96985
       0.89129	      58.13599	      56.83899	      34.86633	      71.02966
       0.90440	      44.09790	      58.51746	      36.46851	      29.06799
       0.91750	      64.08691	      50.12512	      55.08423	      43.48755
       0.93061	      43.10608	      43.86902	      46.92078	      48.90442

Monitor Diode	      1.00
