ALV-7004/USB-FAST
Date :	"11/11/2025"
Time :	"3:55:29 PM"
Samplename : 	""
SampMemo(0) : 	""
SampMemo(1) : 	""
SampMemo(2) : 	""
SampMemo(3) : 	""
SampMemo(4) : 	""
SampMemo(5) : 	""
SampMemo(6) : 	""
SampMemo(7) : 	""
SampMemo(8) : 	""
SampMemo(9) : 	""
Temperature [K] :	     298.16000
Viscosity [cp]  :	       0.89000
Refractive Index:	       1.33200
Wavelength [nm] :	       0.00000
Angle [°]       :	       0.00000
Duration [s]    :	         1
FloatDur [ms]   :	          944
Stop TP [ms]   :	     63865
Runs            :	         1
Mode            :	"A-CH0+1  A-CH2+3 "
MeanCR0 [kHz]   :	      55.35550
MeanCR1 [kHz]   :	      53.21185
MeanCR2 [kHz]   :	      54.80448
MeanCR3 [kHz]   :	      53.21821

"Correlation"
  3.12500E-006	 -1.00000E+000	 -1.00000E+000	 -1.00000E+000	 -1.00000E+000
  6.25000E-006	 -1.00000E+000	 -1.00000E+000	 -1.00000E+000	 -1.00000E+000
  9.37500E-006	 -1.00000E+000	 -1.00000E+000	 -1.00000E+000	 -1.00000E+000
  1.25000E-005	 -1.00000E+000	 -1.00000E+000	 -1.00000E+000	 -1.00000E+000
  1.56250E-005	 -1.00000E+000	 -1.00000E+000	 -1.00000E+000	 -1.00000E+000
  1.87500E-005	 -1.00000E+000	 -1.00000E+000	 -1.00000E+000	 -1.00000E+000
  2.18750E-005	 -8.89341E-001	  3.17297E-001	  3.54742E-001	 -6.40823E-001
  2.50000E-005	  9.84456E+000	  1.15742E+001	  1.06282E+001	  2.67763E+001
  2.81250E-005	  3.42635E+000	  2.71238E+000	  2.27396E+000	  9.17668E+000
  3.12500E-005	  1.76647E+000	  1.27533E+000	  1.14501E+000	  3.31012E+000
  3.43750E-005	  1.32384E+000	  6.76559E-001	  1.70948E+000	  4.74683E+000
  3.75000E-005	  1.32384E+000	  5.56805E-001	  9.19218E-001	  5.10601E+000
  4.06250E-005	  3.27906E-001	  3.17297E-001	  6.93428E-001	  3.07067E+000
  4.37500E-005	  1.21318E+000	  5.56805E-001	  8.06323E-001	  1.87341E+000
  4.68750E-005	  1.43449E+000	  6.76559E-001	  8.06323E-001	  2.23259E+000
  5.00000E-005	  7.70541E-001	  8.56190E-001	  1.20146E+000	  2.05300E+000
  5.62500E-005	  8.81200E-001	  6.16682E-001	  5.24085E-001	  1.21492E+000
  6.25000E-005	  2.72576E-001	  1.09570E+000	  5.80532E-001	  2.11287E+000
  6.87500E-005	  5.49223E-001	  7.36436E-001	  4.67637E-001	  1.63396E+000
  7.50000E-005	  6.59882E-001	  1.15558E+000	  1.28952E-001	  1.15506E+000
  8.12500E-005	  7.70541E-001	  7.96313E-001	  6.93427E-001	  1.15506E+000
  8.75000E-005	  2.72576E-001	  3.77174E-001	  4.67637E-001	  1.27479E+000
  9.37500E-005	  9.36529E-001	  6.16682E-001	  1.14501E+000	  5.56433E-001
  1.00000E-004	  6.87547E-001	  4.37050E-001	  8.06322E-001	  3.16982E-001
  1.12500E-004	  4.66229E-001	  7.06497E-001	  4.11189E-001	  8.85678E-001
  1.25000E-004	  7.70541E-001	  4.07112E-001	  5.24085E-001	  7.95884E-001
  1.37500E-004	  6.32217E-001	  5.86743E-001	  4.11189E-001	  8.55747E-001
  1.50000E-004	  6.32217E-001	  6.46620E-001	  5.24085E-001	  6.46227E-001
  1.62500E-004	  7.98206E-001	  6.16682E-001	  1.85399E-001	  7.75304E-002
  1.75000E-004	  3.83235E-001	  5.26866E-001	  9.47441E-001	  1.45437E+000
  1.87500E-004	  1.01952E+000	  9.46006E-001	  8.06322E-001	  5.86364E-001
  2.00000E-004	  4.80061E-001	  7.51405E-001	  4.81748E-001	  4.36707E-001
  2.25000E-004	  6.18385E-001	  3.92142E-001	  3.82965E-001	  4.21741E-001
  2.50000E-004	  5.35391E-001	  7.06497E-001	  6.22867E-001	  4.06775E-001
  2.75000E-004	  4.52396E-001	  6.01712E-001	  5.09972E-001	  4.51673E-001
  3.00000E-004	  6.18385E-001	  4.07112E-001	  5.09972E-001	  5.26501E-001
  3.25000E-004	  6.46049E-001	  5.56804E-001	  4.11189E-001	  6.01330E-001
  3.50000E-004	  6.59882E-001	  5.41835E-001	  4.53525E-001	  4.21741E-001
  3.75000E-004	  5.76888E-001	  7.51405E-001	  7.07539E-001	  4.21741E-001
  4.00000E-004	  6.39132E-001	  4.22080E-001	  6.22867E-001	  3.84326E-001
  4.50000E-004	  4.45480E-001	  6.16681E-001	  5.02916E-001	  6.38743E-001
  5.00000E-004	  4.24731E-001	  5.86742E-001	  6.36979E-001	  5.56432E-001
  5.50000E-004	  6.59881E-001	  6.46619E-001	  2.41846E-001	  4.96569E-001
  6.00000E-004	  4.17815E-001	  5.11896E-001	  5.24084E-001	  5.86363E-001
  6.50000E-004	  7.35959E-001	  4.59503E-001	  6.15811E-001	  4.06775E-001
  7.00000E-004	  4.45480E-001	  4.52019E-001	  4.46468E-001	  4.81603E-001
  7.50000E-004	  5.07725E-001	  5.86742E-001	  4.46468E-001	  5.33983E-001
  8.00000E-004	  3.52110E-001	  5.38091E-001	  5.45250E-001	  5.45206E-001
  9.00000E-004	  5.00808E-001	  5.71772E-001	  5.09970E-001	  5.04051E-001
  1.00000E-003	  4.86975E-001	  4.44533E-001	  6.08753E-001	  3.99291E-001
  1.10000E-003	  4.97350E-001	  4.96925E-001	  4.14715E-001	  4.89085E-001
  1.20000E-003	  5.18098E-001	  5.08152E-001	  4.39411E-001	  4.10515E-001
  1.30000E-003	  5.42305E-001	  3.95883E-001	  4.39411E-001	  4.55412E-001
  1.40000E-003	  5.07724E-001	  5.19379E-001	  2.48901E-001	  3.69359E-001
  1.50000E-003	  5.73428E-001	  4.18337E-001	  4.46467E-001	  4.25481E-001
  1.60000E-003	  4.90431E-001	  6.07321E-001	  5.11732E-001	  5.15272E-001
  1.80000E-003	  5.83799E-001	  4.37046E-001	  5.76999E-001	  4.53539E-001
  2.00000E-003	  4.97347E-001	  4.68856E-001	  4.95856E-001	  4.68505E-001
  2.20000E-003	  5.16367E-001	  4.78211E-001	  6.24627E-001	  3.78711E-001
  2.40000E-003	  4.85244E-001	  4.52015E-001	  4.97620E-001	  5.32109E-001
  2.60000E-003	  5.21554E-001	  4.85696E-001	  5.04676E-001	  4.74117E-001
  2.80000E-003	  4.38560E-001	  4.10850E-001	  5.04676E-001	  4.70375E-001
  3.00000E-003	  4.26457E-001	  4.74469E-001	  3.91781E-001	  4.12383E-001
  3.20000E-003	  4.39420E-001	  4.49203E-001	  4.63217E-001	  4.78788E-001
  3.60000E-003	  5.25007E-001	  4.90369E-001	  4.91441E-001	  5.12461E-001
  4.00000E-003	  4.74865E-001	  4.64202E-001	  5.27602E-001	  4.62888E-001
  4.40000E-003	  4.89561E-001	  4.68880E-001	  5.56708E-001	  4.55405E-001
  4.80000E-003	  4.54116E-001	  4.32392E-001	  4.53515E-001	  4.53534E-001
  5.20000E-003	  4.84374E-001	  5.03497E-001	  4.75565E-001	  4.26409E-001
  5.60000E-003	  5.40568E-001	  5.30659E-001	  4.73801E-001	  4.35762E-001
  6.00000E-003	  5.09445E-001	  4.38034E-001	  5.28484E-001	  4.84401E-001
  6.40000E-003	  4.84797E-001	  4.83869E-001	  4.60120E-001	  4.93276E-001
  7.20000E-003	  4.47623E-001	  4.63753E-001	  4.75555E-001	  4.93744E-001
  8.00000E-003	  4.85229E-001	  5.24568E-001	  4.58357E-001	  4.97018E-001
  8.80000E-003	  4.72693E-001	  4.87143E-001	  4.68940E-001	  4.35285E-001
  9.60000E-003	  5.12029E-001	  4.62350E-001	  4.77760E-001	  4.96550E-001
  1.04000E-002	  4.81771E-001	  4.70770E-001	  4.68499E-001	  4.93744E-001
  1.12000E-002	  4.76151E-001	  4.73577E-001	  4.53506E-001	  5.01694E-001
  1.20000E-002	  5.12029E-001	  4.96997E-001	  4.65412E-001	  4.77843E-001
  1.28000E-002	  5.17843E-001	  4.60662E-001	  4.78651E-001	  4.85803E-001
  1.44000E-002	  4.76564E-001	  4.75400E-001	  4.81297E-001	  4.64524E-001
  1.60000E-002	  4.54735E-001	  4.84757E-001	  4.47340E-001	  5.03107E-001
  1.76000E-002	  4.74431E-001	  4.52241E-001	  5.10843E-001	  4.93286E-001
  1.92000E-002	  4.79618E-001	  4.49668E-001	  4.84384E-001	  4.64056E-001
  2.08000E-002	  4.72702E-001	  5.03238E-001	  4.86589E-001	  4.73643E-001
  2.24000E-002	  4.75295E-001	  4.59756E-001	  4.64539E-001	  4.84166E-001
  2.40000E-002	  4.77456E-001	  5.34412E-001	  4.37859E-001	  4.92350E-001
  2.56000E-002	  4.84224E-001	  4.97122E-001	  4.70566E-001	  4.83513E-001
  2.88000E-002	  4.65422E-001	  4.66558E-001	  4.74976E-001	  4.72142E-001
  3.20000E-002	  4.57209E-001	  4.65564E-001	  4.76961E-001	  4.81963E-001
  3.52000E-002	  4.90600E-001	  4.68108E-001	  4.59430E-001	  4.66062E-001
  3.84000E-002	  4.82063E-001	  4.68781E-001	  4.84650E-001	  4.92603E-001
  4.16000E-002	  4.91572E-001	  4.86679E-001	  4.85091E-001	  4.42211E-001
  4.48000E-002	  4.57209E-001	  4.63985E-001	  4.56756E-001	  4.77754E-001
  4.80000E-002	  4.61315E-001	  4.72758E-001	  4.60202E-001	  4.56592E-001
  5.12000E-002	  4.57184E-001	  4.67268E-001	  4.44499E-001	  4.62153E-001
  5.76000E-002	  4.67855E-001	  4.64577E-001	  4.61535E-001	  4.57535E-001
  6.40000E-002	  4.62939E-001	  4.59107E-001	  4.61010E-001	  4.67181E-001
  7.04000E-002	  4.50188E-001	  4.55128E-001	  4.64043E-001	  4.53765E-001
  7.68000E-002	  4.67369E-001	  4.54748E-001	  4.53346E-001	  4.60809E-001
  8.32000E-002	  4.66289E-001	  4.59283E-001	  4.50452E-001	  4.52012E-001
  8.96000E-002	  4.53674E-001	  4.61477E-001	  4.71870E-001	  4.72062E-001
  9.60000E-002	  4.51729E-001	  4.45302E-001	  4.56764E-001	  4.31669E-001
  1.02400E-001	  4.50383E-001	  4.47529E-001	  4.42664E-001	  4.53576E-001
  1.15200E-001	  4.50302E-001	  4.42700E-001	  4.46028E-001	  4.51267E-001
  1.28000E-001	  4.49924E-001	  4.42347E-001	  4.52149E-001	  4.53517E-001
  1.40800E-001	  4.26208E-001	  4.39363E-001	  4.30754E-001	  4.48022E-001
  1.53600E-001	  4.45929E-001	  4.44135E-001	  4.43492E-001	  4.42088E-001
  1.66400E-001	  4.53439E-001	  4.31728E-001	  4.36792E-001	  4.36856E-001
  1.79200E-001	  4.31045E-001	  4.39541E-001	  4.48123E-001	  4.25165E-001
  1.92000E-001	  4.37150E-001	  4.21695E-001	  4.14764E-001	  4.18970E-001
  2.04800E-001	  4.25036E-001	  4.26847E-001	  4.20712E-001	  4.21102E-001
  2.30400E-001	  4.12435E-001	  4.09887E-001	  4.12798E-001	  4.03007E-001
  2.56000E-001	  4.05777E-001	  4.08867E-001	  4.08634E-001	  3.99810E-001
  2.81600E-001	  3.97741E-001	  3.90429E-001	  3.96487E-001	  3.93425E-001
  3.07200E-001	  3.96645E-001	  3.83431E-001	  3.95466E-001	  3.80681E-001
  3.32800E-001	  3.79099E-001	  3.75932E-001	  3.75778E-001	  3.75549E-001
  3.58400E-001	  3.72641E-001	  3.64952E-001	  3.72649E-001	  3.57030E-001
  3.84000E-001	  3.60685E-001	  3.56175E-001	  3.62353E-001	  3.60876E-001
  4.09600E-001	  3.54097E-001	  3.47896E-001	  3.52843E-001	  3.47553E-001
  4.60800E-001	  3.39172E-001	  3.34647E-001	  3.35030E-001	  3.32142E-001
  5.12000E-001	  3.19303E-001	  3.15672E-001	  3.14737E-001	  3.08069E-001
  5.63200E-001	  3.01293E-001	  3.02959E-001	  2.99618E-001	  2.94227E-001
  6.14400E-001	  2.90322E-001	  2.92289E-001	  2.84307E-001	  2.74270E-001
  6.65600E-001	  2.75365E-001	  2.73936E-001	  2.67077E-001	  2.63522E-001
  7.16800E-001	  2.65059E-001	  2.55953E-001	  2.49296E-001	  2.50481E-001
  7.68000E-001	  2.49020E-001	  2.44217E-001	  2.32861E-001	  2.25605E-001
  8.19200E-001	  2.35185E-001	  2.32169E-001	  2.15571E-001	  2.13946E-001
  9.21600E-001	  2.10968E-001	  2.01083E-001	  1.92345E-001	  1.92772E-001
  1.02400E+000	  1.93762E-001	  1.79828E-001	  1.69457E-001	  1.68488E-001
  1.12640E+000	  1.80289E-001	  1.63721E-001	  1.42250E-001	  1.52278E-001
  1.22880E+000	  1.62267E-001	  1.41196E-001	  1.28381E-001	  1.37187E-001
  1.33120E+000	  1.55047E-001	  1.23867E-001	  1.13787E-001	  1.22010E-001
  1.43360E+000	  1.37552E-001	  1.10032E-001	  1.01072E-001	  1.05449E-001
  1.53600E+000	  1.25567E-001	  1.01672E-001	  9.16417E-002	  8.97075E-002
  1.63840E+000	  1.12869E-001	  9.14529E-002	  8.45469E-002	  7.73277E-002
  1.84320E+000	  9.38610E-002	  7.07371E-002	  6.97613E-002	  5.65135E-002
  2.04800E+000	  7.46251E-002	  5.30585E-002	  5.62267E-002	  3.76990E-002
  2.25280E+000	  6.09340E-002	  4.69996E-002	  4.54439E-002	  2.79406E-002
  2.45760E+000	  5.21975E-002	  3.88754E-002	  3.70849E-002	  1.60230E-002
  2.66240E+000	  4.63162E-002	  3.46471E-002	  2.99856E-002	  1.03187E-002
  2.86720E+000	  3.72883E-002	  2.53353E-002	  2.47347E-002	  1.00633E-003
  3.07200E+000	  2.65688E-002	  1.50108E-002	  2.04100E-002	 -5.77571E-003
  3.27680E+000	  1.94942E-002	  7.74093E-003	  1.31071E-002	 -9.09789E-003
  3.68640E+000	  2.96256E-003	 -4.04956E-003	 -1.43389E-003	 -1.23352E-002
  4.09600E+000	 -1.10404E-002	 -6.12983E-003	 -1.29847E-002	 -1.67628E-002
  4.50560E+000	 -1.58728E-002	 -1.58553E-002	 -2.36271E-002	 -1.44097E-002
  4.91520E+000	 -1.88040E-002	 -1.50544E-002	 -2.80468E-002	 -2.96139E-003
  5.32480E+000	 -1.97208E-002	 -6.77920E-003	 -2.93362E-002	  8.12590E-003
  5.73440E+000	 -7.52875E-003	 -7.16508E-004	 -2.48840E-002	  1.81838E-002
  6.14400E+000	 -7.02838E-004	  9.69275E-003	 -9.96234E-003	  2.64147E-002
  6.55360E+000	 -6.69778E-003	  1.49917E-002	 -4.13781E-003	  1.65188E-002
  7.37280E+000	 -1.15054E-002	  6.57109E-003	  1.45871E-003	  4.38963E-003
  8.19200E+000	 -1.23209E-002	  2.17741E-003	  8.33789E-003	 -9.69229E-004
  9.01120E+000	 -9.65857E-003	  9.62735E-004	  2.27128E-002	  3.66514E-003
  9.83040E+000	 -1.23440E-002	  9.68220E-003	  1.94834E-002	  4.35975E-003
  1.06496E+001	 -1.66142E-002	  1.12575E-002	  8.75303E-003	  1.39298E-002
  1.14688E+001	 -3.94557E-003	  1.02658E-002	 -1.77250E-003	  1.28540E-002
  1.22880E+001	  1.69501E-003	  7.50169E-003	 -7.62051E-003	  3.52959E-003
  1.31072E+001	 -1.72721E-003	 -6.97559E-003	  2.69314E-003	  1.13954E-004
  1.47456E+001	  1.97551E-002	 -7.67101E-003	  1.19611E-002	  3.94561E-003
  1.63840E+001	  3.10322E-003	  6.62751E-003	 -1.07787E-002	  3.95116E-003
  1.80224E+001	  2.18557E-002	  4.38593E-003	 -1.93797E-002	  2.37396E-002
  1.96608E+001	  4.55678E-002	  4.76918E-003	 -1.44512E-002	  2.61664E-002
  2.12992E+001	  3.39690E-002	  9.05456E-003	  2.79203E-003	  1.01303E-003
  2.29376E+001	  6.16495E-003	 -1.96912E-002	 -2.18291E-004	 -2.80346E-003
  2.45760E+001	 -2.46490E-002	 -3.74841E-002	 -1.42671E-002	  1.82148E-003
  2.62144E+001	 -2.82076E-002	 -2.77023E-002	 -2.07401E-002	  2.94964E-003
  2.94912E+001	  1.18179E-002	 -1.02913E-002	 -1.32132E-002	 -8.97284E-003
  3.27680E+001	  2.12679E-002	  2.70701E-003	  1.99670E-002	 -1.05901E-002
  3.60448E+001	 -4.50427E-003	  2.08447E-003	  8.59956E-004	 -9.01773E-003
  3.93216E+001	 -4.19917E-003	  1.04079E-002	  6.76010E-003	  1.52333E-002
  4.25984E+001	  1.32545E-002	  5.62167E-003	  1.81603E-002	 -5.10944E-003
  4.58752E+001	  1.25226E-002	 -4.91895E-004	  4.93158E-003	  7.50630E-003
  4.91520E+001	 -1.67319E-002	 -1.24559E-002	  3.40620E-003	  3.84300E-003
  5.24288E+001	 -2.88519E-002	  8.57687E-003	 -1.72203E-002	 -9.87292E-003
  5.89824E+001	 -2.89917E-003	  1.20246E-002	 -4.92066E-003	 -1.23310E-002
  6.55360E+001	  2.35469E-002	  2.70530E-004	  2.36283E-003	  4.94193E-003
  7.20896E+001	 -1.49184E-002	 -7.19368E-003	 -6.28701E-003	 -5.32295E-003
  7.86432E+001	  2.16192E-002	 -2.93182E-003	  3.75437E-004	 -1.04984E-002
  8.51968E+001	  3.70992E-003	  1.26513E-002	 -1.31034E-002	 -2.20157E-002
  9.17504E+001	 -9.13024E-003	  2.97760E-002	  6.44985E-003	 -1.12911E-002
  9.83040E+001	  5.42766E-003	 -1.25038E-002	 -1.04901E-002	  3.16285E-003
  1.04858E+002	  9.07721E-003	  3.50272E-005	  4.80197E-003	  2.28557E-003
  1.17965E+002	 -2.02946E-003	 -2.65520E-002	 -5.73466E-003	 -3.57508E-003
  1.31072E+002	  8.40744E-003	 -2.02442E-003	 -3.90618E-003	  3.23697E-004
  1.44179E+002	 -1.27206E-003	  1.02321E-002	 -1.80770E-002	  3.10473E-003
  1.57286E+002	 -9.54586E-003	 -5.80587E-003	 -1.47302E-002	 -2.80831E-003
  1.70394E+002	  4.70723E-003	 -9.83316E-003	  2.12618E-002	 -7.78466E-003
  1.83501E+002	 -1.99847E-002	  3.08039E-003	  1.14183E-002	 -8.89020E-003
  1.96608E+002	  1.08050E-004	  1.84800E-003	  1.48013E-003	 -1.73817E-003
  2.09715E+002	 -1.01960E-002	 -1.73490E-003	 -4.03889E-003	  1.87848E-002
  2.35930E+002	 -5.18852E-003	  1.09076E-003	 -1.35991E-002	  2.85886E-003
  2.62144E+002	 -1.60546E-002	  2.01037E-002	 -8.56069E-003	 -1.19035E-003
  2.88358E+002	 -1.90697E-002	  4.71324E-003	  8.66240E-003	 -3.92229E-003
  3.14573E+002	  3.19236E-004	 -3.47019E-003	 -1.17960E-002	  6.77640E-004
  3.40787E+002	 -1.33560E-002	 -1.26549E-003	 -1.63631E-003	  8.11987E-003
  3.67002E+002	 -5.30049E-003	  5.20904E-003	  2.03243E-002	 -6.75879E-003
  3.93216E+002	  7.51375E-004	 -2.10015E-002	 -2.65991E-003	 -7.49775E-003

"Count Rate"
       0.01311	      43.64014	      59.28040	      42.19055	      41.04614
       0.02621	      47.60742	      93.00232	      51.19324	      53.32947
       0.03932	      58.97522	      48.06519	      55.08423	      47.14966
       0.05243	      43.10608	      44.09790	      60.34851	      60.57739
       0.06554	      54.09241	      54.39758	      47.37854	      41.04614
       0.07864	      65.68909	      74.31030	      41.80908	      57.14417
       0.09175	      56.76270	      63.70544	      68.28308	      34.02710
       0.10486	      53.48206	      27.08435	      45.31860	      22.73560
       0.11796	      51.65100	      49.28589	      52.26135	      81.71082
       0.13107	      34.63745	      61.41663	      62.63733	      57.14417
       0.14418	      59.58557	      41.12244	      53.10059	      82.32117
       0.15729	      58.97522	      52.41394	      45.92896	      54.24500
       0.17039	      53.40576	      50.04883	      55.38940	      56.22864
       0.18350	      44.78455	      41.12244	      71.64001	      65.99426
       0.19661	      50.35400	      54.39758	      34.94263	      46.53931
       0.20972	      63.17139	      52.64282	      35.47668	      47.68372
       0.22282	      44.55566	      73.08960	      55.38940	      52.26135
       0.23593	      49.36218	      63.78174	      46.84448	      51.57471
       0.24904	      62.02698	      49.97253	      40.35950	      64.92615
       0.26214	      39.13879	      65.07874	      76.37024	      56.38123
       0.27525	      63.24768	      46.84448	      47.53113	      78.96423
       0.28836	      42.49573	      46.61560	      57.44934	      74.00513
       0.30147	      46.15784	      48.98071	      50.73547	      42.49573
       0.31457	      99.41101	      52.10876	      77.89612	      45.85266
       0.32768	      53.78723	      80.71899	      57.14417	      40.74097
       0.34079	      48.67554	      79.49829	      48.14148	      45.39490
       0.35389	      59.20410	      47.91260	      84.68628	      52.10876
       0.36700	      49.51477	      39.82544	      52.71912	      47.83630
       0.38011	      64.69727	      46.61560	      54.70276	      49.81995
       0.39322	      47.68372	      62.17957	      61.87439	      56.53381
       0.40632	      38.29956	      53.40576	      54.70276	      68.74084
       0.41943	      51.65100	      49.59106	      51.95618	      54.85535
       0.43254	      51.65100	      33.18787	      44.78455	      38.29956
       0.44564	      94.29932	      41.65649	      44.86084	      56.61011
       0.45875	      61.87439	      37.53662	      61.18774	      74.53918
       0.47186	      54.01611	      55.77087	      82.16858	      67.52014
       0.48497	      63.24768	      57.60193	      58.44116	      80.71899
       0.49807	      42.57202	      61.64551	      45.62378	      49.89624
       0.51118	      80.10864	      58.74634	      33.64563	      39.90173
       0.52429	      78.20129	      38.75732	      65.15503	      49.05701
       0.53740	      60.50110	      33.11157	      46.23413	      34.25598
       0.55050	      80.94788	      82.32117	      57.22046	      58.05969
       0.56361	      63.62915	      46.84448	      45.08972	      37.68921
       0.57672	      58.67004	      44.47937	      42.11426	      32.34863
       0.58982	      78.20129	      51.42212	      36.84998	      36.62109
       0.60293	      36.39221	      83.69446	      35.93445	      31.35681
       0.61604	      70.57190	      43.56384	      43.56384	      55.38940
       0.62915	      50.50659	      31.43311	      36.92627	      73.31848
       0.64225	      45.39490	      57.14417	      54.39758	      43.25867
       0.65536	      51.42212	      35.09521	      89.26392	      46.61560
       0.66847	      60.95886	      30.67017	      53.02429	      70.57190
       0.68157	      32.42493	      44.70825	      52.49023	      60.65369
       0.69468	      43.79272	      59.89075	      40.51208	      45.24231
       0.70779	      69.42749	      34.79004	      44.40308	      55.84717
       0.72090	      29.83093	      21.20972	      65.46021	      26.32141
       0.73400	      48.90442	      39.74915	      65.07874	      70.11414
       0.74711	      54.16870	      51.49841	      38.98621	      50.73547
       0.76022	      53.02429	      46.76819	      74.15771	      42.72461
       0.77332	      40.05432	      40.35950	      46.76819	      78.04871
       0.78643	      33.18787	      62.10327	      34.48486	      59.73816
       0.79954	      30.67017	      41.27502	      33.64563	      46.31042
       0.81265	      31.73828	      48.06519	      37.68921	      48.90442
       0.82575	      58.05969	      64.62097	      79.11682	      45.08972
       0.83886	      55.84717	      62.94250	      60.34851	      49.89624
       0.85197	     102.08130	      60.95886	      50.50659	      57.60193
       0.86508	      61.11145	      54.47388	      97.80884	      35.17151
       0.87818	      59.73816	      62.94250	      53.10059	      54.32129
       0.89129	      38.22327	      41.58020	      57.67822	      42.11426
       0.90440	      44.78455	      63.85803	      51.04065	      47.91260
       0.91750	      37.00256	      51.04065	      72.55554	      50.88806
       0.93061	      56.61011	      42.95349	      58.59375	      49.66736

Monitor Diode	      1.00
