ALV-7004/USB-FAST
Date :	"11/11/2025"
Time :	"4:00:36 PM"
Samplename : 	""
SampMemo(0) : 	""
SampMemo(1) : 	""
SampMemo(2) : 	""
SampMemo(3) : 	""
SampMemo(4) : 	""
SampMemo(5) : 	""
SampMemo(6) : 	""
SampMemo(7) : 	""
SampMemo(8) : 	""
SampMemo(9) : 	""
Temperature [K] :	     298.16000
Viscosity [cp]  :	       0.89000
Refractive Index:	       1.33200
Wavelength [nm] :	       0.00000
Angle [°]       :	       0.00000
Duration [s]    :	         1
FloatDur [ms]   :	          944
Stop TP [ms]   :	     68628
Runs            :	         1
Mode            :	"A-CH0+1  A-CH2+3 "
MeanCR0 [kHz]   :	      55.55259
MeanCR1 [kHz]   :	      56.91528
MeanCR2 [kHz]   :	      55.67021
MeanCR3 [kHz]   :	      56.21168

"Correlation"
  3.12500E-006	 -1.00000E+000	 -1.00000E+000	 -1.00000E+000	 -1.00000E+000
  6.25000E-006	 -1.00000E+000	 -1.00000E+000	 -1.00000E+000	 -1.00000E+000
  9.37500E-006	 -1.00000E+000	 -1.00000E+000	 -1.00000E+000	 -1.00000E+000
  1.25000E-005	 -1.00000E+000	 -1.00000E+000	 -1.00000E+000	 -1.00000E+000
  1.56250E-005	 -1.00000E+000	 -1.00000E+000	 -1.00000E+000	 -1.00000E+000
  1.87500E-005	 -1.00000E+000	 -1.00000E+000	 -1.00000E+000	 -1.00000E+000
  2.18750E-005	 -8.90125E-001	 -5.79103E-002	  8.59991E-001	 -7.85373E-001
  2.50000E-005	  1.26245E+001	  1.25033E+001	  1.19105E+001	  2.29309E+001
  2.81250E-005	  4.16413E+000	  1.40756E+000	  2.06351E+000	  8.12165E+000
  3.12500E-005	  9.77750E-001	  1.19821E+000	  1.18822E+000	  5.11687E+000
  3.43750E-005	  9.77750E-001	  8.84179E-001	  1.18822E+000	  5.00956E+000
  3.75000E-005	  2.18638E+000	  4.65473E-001	  7.50579E-001	  3.82911E+000
  4.06250E-005	  1.74688E+000	  1.09353E+000	  7.50579E-001	  3.07791E+000
  4.37500E-005	  2.29625E+000	  3.60796E-001	  1.07881E+000	  2.86329E+000
  4.68750E-005	  9.77750E-001	  5.70149E-001	  8.59991E-001	  1.79015E+000
  5.00000E-005	  4.83313E-001	  5.70149E-001	  7.50579E-001	  2.05843E+000
  5.62500E-005	  9.77750E-001	  8.31841E-001	  9.14696E-001	  2.43403E+000
  6.25000E-005	  4.83313E-001	  5.17811E-001	  4.77051E-001	  1.30724E+000
  6.87500E-005	  4.28375E-001	  5.70149E-001	  5.31757E-001	  9.85300E-001
  7.50000E-005	  2.08625E-001	  2.56119E-001	  3.67640E-001	  6.09702E-001
  8.12500E-005	  4.83313E-001	  7.79503E-001	  1.02411E+000	  1.52187E+000
  8.75000E-005	  7.03063E-001	  5.70149E-001	  6.95874E-001	  1.30724E+000
  9.37500E-005	  2.63563E-001	  3.60796E-001	  6.95874E-001	  9.31643E-001
  1.00000E-004	  4.55844E-001	  2.29950E-001	  8.32638E-001	  1.09261E+000
  1.12500E-004	  4.00906E-001	  7.27164E-001	  5.86462E-001	  8.51158E-001
  1.25000E-004	  5.10781E-001	  6.22487E-001	  6.68521E-001	  1.17310E+000
  1.37500E-004	  1.81156E-001	  2.82289E-001	  3.94064E-002	  6.09702E-001
  1.50000E-004	  7.85469E-001	  2.82289E-001	  4.77051E-001	  8.77986E-001
  1.62500E-004	  6.20656E-001	  1.25274E-001	  4.77051E-001	  3.68247E-001
  1.75000E-004	  7.30531E-001	  6.74826E-001	  3.12934E-001	  2.87762E-001
  1.87500E-004	  4.55844E-001	  4.91642E-001	  6.68521E-001	  5.02389E-001
  2.00000E-004	  6.34390E-001	  5.57064E-001	  5.45433E-001	  4.35317E-001
  2.25000E-004	  4.42109E-001	  6.74825E-001	  5.86462E-001	  4.48732E-001
  2.50000E-004	  6.89328E-001	  3.47711E-001	  5.86462E-001	  5.96288E-001
  2.75000E-004	  5.51984E-001	  4.26219E-001	  5.59109E-001	  7.03601E-001
  3.00000E-004	  5.65718E-001	  5.70149E-001	  6.68520E-001	  3.95075E-001
  3.25000E-004	  5.51984E-001	  4.91641E-001	  8.87343E-001	  3.81661E-001
  3.50000E-004	  8.81609E-001	  7.40248E-001	  6.54844E-001	  6.90187E-001
  3.75000E-004	  8.12937E-001	  5.04726E-001	  4.90727E-001	  6.36530E-001
  4.00000E-004	  6.27522E-001	  5.30895E-001	  3.94992E-001	  6.76772E-001
  4.50000E-004	  4.83311E-001	  4.19676E-001	  5.72785E-001	  4.95681E-001
  5.00000E-004	  5.72585E-001	  7.33705E-001	  4.22345E-001	  3.68246E-001
  5.50000E-004	  4.76444E-001	  3.67337E-001	  4.56536E-001	  6.36530E-001
  6.00000E-004	  4.48976E-001	  6.55198E-001	  4.36021E-001	  4.35317E-001
  6.50000E-004	  4.00905E-001	  5.37437E-001	  5.72785E-001	  4.62145E-001
  7.00000E-004	  4.97046E-001	  5.76690E-001	  5.38594E-001	  4.28610E-001
  7.50000E-004	  4.00905E-001	  3.21541E-001	  4.08668E-001	  6.02994E-001
  8.00000E-004	  4.14638E-001	  4.98182E-001	  4.39439E-001	  7.17013E-001
  9.00000E-004	  5.93185E-001	  4.09861E-001	  4.97564E-001	  6.13053E-001
  1.00000E-003	  4.18072E-001	  4.85097E-001	  5.28335E-001	  3.14588E-001
  1.10000E-003	  4.14638E-001	  4.72013E-001	  4.59953E-001	  5.12447E-001
  1.20000E-003	  4.04338E-001	  5.86503E-001	  3.94991E-001	  3.58184E-001
  1.30000E-003	  4.86744E-001	  4.91640E-001	  3.88153E-001	  4.48730E-001
  1.40000E-003	  4.73009E-001	  4.22946E-001	  4.56534E-001	  5.02387E-001
  1.50000E-003	  3.97471E-001	  5.11266E-001	  3.84733E-001	  4.45376E-001
  1.60000E-003	  4.31804E-001	  4.06588E-001	  4.68499E-001	  4.55434E-001
  1.80000E-003	  4.04335E-001	  3.55885E-001	  5.18076E-001	  4.38667E-001
  2.00000E-003	  3.51115E-001	  4.67103E-001	  4.99271E-001	  3.31354E-001
  2.20000E-003	  4.98759E-001	  3.64063E-001	  5.04399E-001	  5.02384E-001
  2.40000E-003	  5.17644E-001	  4.26214E-001	  3.76183E-001	  4.30283E-001
  2.60000E-003	  4.31804E-001	  3.75512E-001	  4.30889E-001	  4.47051E-001
  2.80000E-003	  3.88884E-001	  3.98410E-001	  4.51403E-001	  4.18546E-001
  3.00000E-003	  4.57556E-001	  4.68739E-001	  4.71918E-001	  3.12909E-001
  3.20000E-003	  4.21498E-001	  4.76912E-001	  4.07805E-001	  4.57106E-001
  3.60000E-003	  3.59694E-001	  4.06583E-001	  3.98403E-001	  4.11834E-001
  4.00000E-003	  3.99180E-001	  4.00041E-001	  4.63365E-001	  4.08480E-001
  4.40000E-003	  4.48109E-001	  3.72236E-001	  4.59091E-001	  4.10995E-001
  4.80000E-003	  4.59268E-001	  3.97587E-001	  4.59091E-001	  4.52076E-001
  5.20000E-003	  3.52827E-001	  4.03312E-001	  4.47125E-001	  3.89197E-001
  5.60000E-003	  4.06906E-001	  4.40930E-001	  4.41141E-001	  3.06198E-001
  6.00000E-003	  3.77720E-001	  3.61605E-001	  4.03558E-001	  3.96743E-001
  6.40000E-003	  3.83291E-001	  4.13115E-001	  4.22781E-001	  4.26496E-001
  7.20000E-003	  3.79857E-001	  3.72227E-001	  3.97565E-001	  3.99248E-001
  8.00000E-003	  4.39944E-001	  3.82858E-001	  4.50162E-001	  4.25238E-001
  8.80000E-003	  3.92733E-001	  3.91035E-001	  4.32638E-001	  3.88769E-001
  9.60000E-003	  3.89728E-001	  3.85720E-001	  3.89471E-001	  3.89188E-001
  1.04000E-002	  3.48955E-001	  3.49329E-001	  4.00583E-001	  4.08051E-001
  1.12000E-002	  3.57539E-001	  3.87355E-001	  3.86907E-001	  3.72001E-001
  1.20000E-002	  3.97910E-001	  3.91444E-001	  3.58271E-001	  4.42425E-001
  1.28000E-002	  3.97488E-001	  3.54831E-001	  4.01847E-001	  4.05936E-001
  1.44000E-002	  3.21948E-001	  3.73639E-001	  4.12959E-001	  3.96086E-001
  1.60000E-002	  3.41503E-001	  3.30502E-001	  3.44790E-001	  3.51024E-001
  1.76000E-002	  3.57169E-001	  3.43177E-001	  3.60603E-001	  3.40963E-001
  1.92000E-002	  3.38069E-001	  3.23756E-001	  3.65091E-001	  3.56473E-001
  2.08000E-002	  3.10599E-001	  3.59533E-001	  3.53979E-001	  4.01116E-001
  2.24000E-002	  3.45795E-001	  3.46653E-001	  3.67442E-001	  3.46413E-001
  2.40000E-002	  3.16608E-001	  3.19462E-001	  3.44790E-001	  3.40544E-001
  2.56000E-002	  3.34543E-001	  3.12909E-001	  3.43843E-001	  3.36576E-001
  2.88000E-002	  3.06429E-001	  2.96043E-001	  3.15848E-001	  3.12158E-001
  3.20000E-002	  3.03746E-001	  2.76212E-001	  3.23353E-001	  3.14778E-001
  3.52000E-002	  2.84027E-001	  2.83776E-001	  3.02731E-001	  3.00945E-001
  3.84000E-002	  2.66131E-001	  2.93794E-001	  2.82322E-001	  2.97382E-001
  4.16000E-002	  2.78925E-001	  2.80096E-001	  2.88199E-001	  2.92981E-001
  4.48000E-002	  2.60575E-001	  2.50453E-001	  3.00914E-001	  2.64161E-001
  4.80000E-002	  2.39757E-001	  2.43502E-001	  2.54565E-001	  2.60598E-001
  5.12000E-002	  2.26531E-001	  2.23474E-001	  2.60202E-001	  2.57038E-001
  5.76000E-002	  2.24737E-001	  2.23196E-001	  2.45646E-001	  2.45277E-001
  6.40000E-002	  1.98875E-001	  1.87472E-001	  2.25481E-001	  2.19917E-001
  7.04000E-002	  1.84978E-001	  1.87114E-001	  2.12788E-001	  2.01264E-001
  7.68000E-002	  1.89378E-001	  1.74104E-001	  2.09262E-001	  2.10351E-001
  8.32000E-002	  1.61424E-001	  1.66131E-001	  1.88448E-001	  1.79489E-001
  8.96000E-002	  1.45573E-001	  1.54696E-001	  1.62696E-001	  1.84047E-001
  9.60000E-002	  1.40444E-001	  1.47950E-001	  1.51156E-001	  1.54023E-001
  1.02400E-001	  1.35499E-001	  1.37970E-001	  1.50738E-001	  1.47653E-001
  1.15200E-001	  1.13263E-001	  1.30550E-001	  1.28349E-001	  1.30308E-001
  1.28000E-001	  1.05880E-001	  1.03328E-001	  1.22423E-001	  1.00629E-001
  1.40800E-001	  9.06467E-002	  9.07804E-002	  9.93139E-002	  9.29520E-002
  1.53600E-001	  6.54275E-002	  7.26301E-002	  7.66854E-002	  8.31212E-002
  1.66400E-001	  6.33081E-002	  7.05089E-002	  8.88532E-002	  6.86849E-002
  1.79200E-001	  5.71576E-002	  5.73985E-002	  7.54422E-002	  5.56371E-002
  1.92000E-001	  5.08527E-002	  5.87530E-002	  6.26190E-002	  4.66766E-002
  2.04800E-001	  4.06350E-002	  5.24055E-002	  5.29402E-002	  4.44923E-002
  2.30400E-001	  3.62684E-002	  3.99714E-002	  4.09627E-002	  3.28307E-002
  2.56000E-001	  2.46614E-002	  3.72689E-002	  2.98737E-002	  3.26862E-002
  2.81600E-001	  1.30080E-002	  3.56712E-002	  3.08499E-002	  1.99033E-002
  3.07200E-001	  6.91085E-003	  2.91139E-002	  2.25741E-002	  1.75498E-002
  3.32800E-001	  5.94483E-003	  2.77590E-002	  2.07438E-002	  1.38472E-002
  3.58400E-001	  4.77181E-003	  1.71939E-002	  9.54273E-003	  2.04582E-002
  3.84000E-001	  7.87686E-003	  1.58967E-002	  1.53554E-002	  1.23997E-002
  4.09600E-001	 -1.62601E-005	  1.19779E-002	  1.68291E-002	  1.62569E-002
  4.60800E-001	  4.13801E-003	  8.68149E-004	  1.50162E-002	  1.64893E-002
  5.12000E-001	  6.18547E-003	  7.16690E-003	  7.23729E-003	  6.84590E-003
  5.63200E-001	  6.33801E-003	  1.10091E-002	 -1.03337E-003	 -5.01811E-004
  6.14400E-001	  8.72438E-003	  2.07215E-003	  6.05226E-003	 -1.37938E-003
  6.65600E-001	 -6.46122E-003	 -9.20304E-004	  2.93003E-003	 -1.19749E-003
  7.16800E-001	 -2.96193E-003	  2.15526E-003	  1.04622E-002	 -4.84702E-003
  7.68000E-001	 -6.26533E-003	 -1.22871E-002	  4.22908E-003	 -5.07555E-003
  8.19200E-001	 -5.06337E-003	 -9.38996E-003	  8.01698E-003	 -7.59291E-003
  9.21600E-001	 -2.67060E-003	 -1.39182E-002	  4.32496E-003	 -1.20873E-002
  1.02400E+000	 -3.47147E-003	 -1.69496E-003	  6.11315E-003	 -5.18060E-003
  1.12640E+000	 -7.49336E-004	 -4.18081E-003	  4.68249E-003	 -3.19825E-003
  1.22880E+000	 -1.08865E-002	 -5.89941E-003	 -1.60456E-003	 -4.54475E-003
  1.33120E+000	  2.25093E-004	 -8.38121E-003	 -5.93938E-003	 -8.95237E-004
  1.43360E+000	  1.24956E-003	  3.04217E-003	 -3.82089E-003	 -1.38209E-003
  1.53600E+000	 -6.33597E-003	 -1.75448E-003	 -2.21991E-003	 -6.46534E-003
  1.63840E+000	 -5.75113E-003	  7.36304E-004	 -3.19680E-003	 -3.19336E-003
  1.84320E+000	 -3.57108E-003	 -2.54995E-003	 -5.54460E-003	 -3.91765E-003
  2.04800E+000	  3.35440E-003	 -8.05052E-003	  2.93028E-004	  1.65555E-003
  2.25280E+000	  1.62351E-003	  4.26188E-004	  2.10812E-003	 -5.14198E-003
  2.45760E+000	  1.05467E-003	 -7.45069E-004	  1.40908E-002	 -6.93196E-003
  2.66240E+000	  1.90708E-003	  5.73583E-003	  1.25723E-002	 -3.57124E-006
  2.86720E+000	  8.60128E-004	  5.96659E-003	 -9.39774E-004	  2.94285E-003
  3.07200E+000	 -5.27254E-004	  8.19701E-003	 -1.12418E-003	  1.05997E-002
  3.27680E+000	  9.98865E-004	  9.33660E-003	 -2.77334E-003	  2.74540E-003
  3.68640E+000	  3.86289E-003	 -6.33682E-004	 -7.40974E-004	  6.74019E-003
  4.09600E+000	 -8.06490E-003	  3.88613E-003	 -8.35793E-003	  1.77155E-003
  4.50560E+000	 -2.08634E-003	  3.09316E-003	  2.32277E-003	 -5.30225E-003
  4.91520E+000	  9.82469E-003	  2.89012E-003	 -1.45578E-003	 -5.21581E-003
  5.32480E+000	  5.45669E-003	  4.64413E-003	 -2.10518E-003	 -3.32989E-003
  5.73440E+000	  7.09597E-003	  1.11610E-003	  5.61561E-003	  1.03600E-002
  6.14400E+000	  1.59182E-003	  1.46435E-003	  4.60721E-003	 -1.46055E-004
  6.55360E+000	 -2.75315E-003	 -1.34429E-003	 -2.17030E-004	 -5.67604E-004
  7.37280E+000	  9.23988E-004	  5.27056E-003	  2.47464E-003	 -2.44681E-004
  8.19200E+000	  2.13798E-003	 -2.84229E-004	  8.22482E-004	  5.15684E-004
  9.01120E+000	  5.07420E-003	  3.74628E-003	 -7.59510E-004	  5.45805E-003
  9.83040E+000	 -2.49433E-003	 -5.17142E-003	  3.90044E-003	  1.04800E-004
  1.06496E+001	  1.85506E-003	 -1.25032E-003	  3.62293E-003	  1.70797E-003
  1.14688E+001	 -4.86468E-004	  1.55871E-003	 -1.32598E-003	  1.29954E-003
  1.22880E+001	  2.69863E-003	 -2.38502E-004	  4.67574E-003	  4.36375E-004
  1.31072E+001	  5.60234E-003	  8.46840E-004	  1.36030E-003	  3.66315E-004
  1.47456E+001	  1.67488E-003	  6.02072E-003	  1.27048E-003	  2.93670E-003
  1.63840E+001	 -5.59005E-003	 -1.10888E-003	  1.01010E-003	 -4.53937E-003
  1.80224E+001	  2.56834E-003	  1.44218E-003	  6.87311E-004	 -1.74523E-003
  1.96608E+001	  1.07787E-003	  1.06002E-003	 -1.25384E-003	 -1.73647E-004
  2.12992E+001	  1.74125E-003	  1.63295E-003	  7.05044E-004	  2.11847E-003
  2.29376E+001	  1.96158E-003	 -1.32526E-003	  4.63302E-003	 -5.35254E-003
  2.45760E+001	  2.76358E-004	 -7.34705E-004	 -4.03091E-003	  8.51880E-005
  2.62144E+001	  2.55225E-004	 -6.84847E-004	 -1.44955E-003	 -9.79992E-005
  2.94912E+001	 -2.18014E-003	 -7.26950E-004	 -4.12107E-003	  8.63928E-004
  3.27680E+001	  6.37052E-004	 -1.58889E-004	 -7.47606E-005	 -1.13681E-003
  3.60448E+001	  2.70830E-003	  9.69019E-004	  2.82685E-003	  3.88452E-003
  3.93216E+001	 -1.75367E-003	 -1.54248E-003	  1.12969E-003	  1.14371E-003
  4.25984E+001	 -1.56599E-003	 -1.41202E-003	 -1.01251E-003	 -7.75714E-004
  4.58752E+001	  1.74641E-003	 -2.25369E-003	 -1.45273E-004	 -8.63752E-004
  4.91520E+001	  3.00977E-003	 -7.16779E-004	  2.52115E-003	  9.09587E-004
  5.24288E+001	  1.13242E-004	  7.48583E-004	 -2.49454E-003	  1.25121E-003
  5.89824E+001	 -1.68477E-004	  3.08359E-004	 -4.94100E-004	 -2.98832E-003
  6.55360E+001	  1.35709E-003	  8.11764E-004	 -2.16555E-004	 -6.44899E-004
  7.20896E+001	  9.57570E-004	  2.86551E-004	 -2.37371E-003	 -1.24375E-003
  7.86432E+001	  8.63714E-004	 -2.05861E-003	  1.60897E-004	  4.63834E-004
  8.51968E+001	  9.53070E-004	 -6.68199E-004	 -1.51561E-003	  1.22590E-003
  9.17504E+001	  9.69469E-004	  1.42933E-003	 -2.24085E-003	  1.27551E-003
  9.83040E+001	  1.03595E-003	  1.42865E-003	 -1.14701E-003	 -1.58376E-003
  1.04858E+002	 -4.51942E-004	  6.18444E-004	 -2.01212E-003	 -2.39855E-003
  1.17965E+002	 -1.09696E-003	  2.85248E-003	  3.59154E-004	 -3.43832E-004
  1.31072E+002	  6.98751E-006	 -1.65210E-003	  8.25013E-004	 -4.83262E-004
  1.44179E+002	  3.02041E-004	  1.30337E-003	 -8.74915E-004	 -9.43499E-004
  1.57286E+002	  5.83425E-004	 -1.59186E-003	  3.80517E-004	  1.08495E-006
  1.70394E+002	  2.38008E-003	  3.68964E-004	  1.40607E-003	 -5.88524E-004
  1.83501E+002	  1.94048E-003	 -2.13464E-003	 -2.13102E-003	  7.34012E-004
  1.96608E+002	 -6.18068E-004	 -1.69478E-003	 -1.87762E-003	 -9.59569E-004
  2.09715E+002	 -5.50715E-004	 -1.46381E-003	 -1.57240E-003	  1.21026E-003
  2.35930E+002	  5.53930E-004	 -6.19993E-004	  1.09126E-003	  1.19692E-003
  2.62144E+002	 -1.23637E-004	 -1.23285E-003	  9.60334E-004	  5.86189E-004
  2.88358E+002	 -7.16075E-004	  9.93378E-005	 -1.54721E-003	 -1.25069E-003
  3.14573E+002	  2.80326E-004	 -7.80321E-004	 -1.34057E-003	 -9.77518E-004
  3.40787E+002	  1.98460E-003	 -8.03879E-004	 -3.57130E-004	  3.09995E-004
  3.67002E+002	 -1.15406E-003	 -3.78442E-004	 -5.35215E-004	  4.10671E-004
  3.93216E+002	  1.08849E-003	 -4.34420E-004	  1.26620E-003	  7.11163E-004

"Count Rate"
       0.01311	      53.78723	      57.90710	      53.48206	      52.64282
       0.02621	      48.67554	      50.12512	      53.78723	      51.80359
       0.03932	      54.47388	      53.40576	      53.93982	      52.94800
       0.05243	      57.75452	      54.01611	      57.52563	      60.57739
       0.06554	      52.10876	      49.81995	      48.67554	      51.42212
       0.07864	      47.14966	      56.83899	      57.29675	      52.18506
       0.09175	      49.81995	      61.56921	      56.07605	      59.43298
       0.10486	      55.99976	      51.19324	      56.83899	      60.42480
       0.11796	      47.53113	      48.67554	      57.75452	      54.16870
       0.13107	      52.49023	      54.32129	      51.65100	      53.10059
       0.14418	      46.69189	      53.25317	      42.41943	      57.67822
       0.15729	      47.98889	      46.84448	      60.04333	      48.75183
       0.17039	      56.68640	      58.59375	      54.47388	      54.01611
       0.18350	      60.42480	      64.01062	      51.95618	      56.61011
       0.19661	      56.30493	      61.56921	      48.82813	      53.10059
       0.20972	      58.44116	      51.11694	      58.13599	      62.63733
       0.22282	      49.28589	      50.04883	      57.60193	      62.78992
       0.23593	      52.56653	      55.16052	      56.53381	      51.34583
       0.24904	      54.70276	      59.50928	      73.85254	      43.64014
       0.26214	      50.43030	      53.17688	      54.16870	      60.19592
       0.27525	      51.11694	      58.82263	      52.10876	      58.21228
       0.28836	      48.21777	      68.58826	      55.54199	      56.76270
       0.30147	      50.73547	      59.35669	      44.40308	      55.99976
       0.31457	      53.48206	      70.87708	      50.73547	      51.65100
       0.32768	      50.88806	      53.55835	      57.22046	      55.54199
       0.34079	      57.98340	      62.17957	      52.64282	      56.38123
       0.35389	      62.10327	      56.15234	      47.07336	      54.55017
       0.36700	      58.44116	      52.71912	      57.14417	      55.77087
       0.38011	      49.89624	      59.73816	      57.83081	      51.19324
       0.39322	      56.76270	      55.77087	      53.32947	      45.70007
       0.40632	      55.16052	      59.96704	      53.17688	      56.61011
       0.41943	      60.57739	      54.55017	      51.11694	      58.44116
       0.43254	      53.32947	      55.08423	      54.77905	      54.39758
       0.44564	      57.98340	      56.76270	      56.15234	      62.78992
       0.45875	      53.17688	      62.48474	      57.90710	      48.14148
       0.47186	      51.19324	      51.57471	      54.39758	      54.47388
       0.48497	      48.90442	      58.28857	      61.87439	      46.15784
       0.49807	      55.92346	      51.11694	      64.08691	      49.28589
       0.51118	      58.13599	      51.65100	      73.16589	      53.17688
       0.52429	      61.11145	      49.28589	      54.16870	      50.88806
       0.53740	      61.95068	      50.27771	      50.96436	      55.31311
       0.55050	      48.14148	      63.78174	      55.08423	      57.67822
       0.56361	      49.97253	      47.30225	      60.72998	      61.34033
       0.57672	      55.69458	      55.38940	      45.77637	      53.93982
       0.58982	      54.47388	      52.87170	      55.00793	      56.61011
       0.60293	      57.98340	      60.72998	      54.70276	      64.62097
       0.61604	      60.04333	      60.19592	      49.81995	      61.64551
       0.62915	      50.65918	      52.71912	      55.99976	      62.48474
       0.64225	      52.49023	      53.02429	      52.94800	      57.14417
       0.65536	      55.99976	      48.82813	      57.98340	      58.59375
       0.66847	      50.35400	      57.52563	      61.64551	      50.81177
       0.68157	      51.87988	      51.11694	      51.42212	      65.91797
       0.69468	      51.26953	      57.44934	      51.42212	      56.83899
       0.70779	      66.22314	      49.51477	      50.88806	      49.43848
       0.72090	      46.84448	      59.73816	      56.15234	      48.75183
       0.73400	      51.49841	      61.64551	      52.49023	      56.30493
       0.74711	      59.89075	      49.66736	      47.22595	      51.04065
       0.76022	      60.72998	      53.32947	      56.99158	      53.02429
       0.77332	      59.73816	      54.93164	      57.06787	      59.73816
       0.78643	      55.54199	      56.99158	      45.54749	      53.48206
       0.79954	      59.28040	      56.38123	      53.71094	      57.06787
       0.81265	      52.56653	      54.32129	      49.66736	      64.01062
       0.82575	      57.22046	      53.32947	      50.43030	      52.64282
       0.83886	      65.84167	      71.79260	      63.17139	      64.08691
       0.85197	      60.65369	      65.00244	      51.34583	      55.00793
       0.86508	      53.78723	      58.97522	      57.29675	      50.20142
       0.87818	      59.96704	      47.68372	      59.20410	      53.63464
       0.89129	      58.89893	      50.65918	      57.29675	      56.91528
       0.90440	      50.27771	      57.75452	      50.20142	      56.91528
       0.91750	      51.11694	      63.85803	      51.87988	      62.17957
       0.93061	      49.43848	      60.27222	      52.71912	      51.57471

Monitor Diode	      1.00
