ALV-7004/USB-FAST
Date :	"11/11/2025"
Time :	"3:54:19 PM"
Samplename : 	""
SampMemo(0) : 	""
SampMemo(1) : 	""
SampMemo(2) : 	""
SampMemo(3) : 	""
SampMemo(4) : 	""
SampMemo(5) : 	""
SampMemo(6) : 	""
SampMemo(7) : 	""
SampMemo(8) : 	""
SampMemo(9) : 	""
Temperature [K] :	     298.16000
Viscosity [cp]  :	       0.89000
Refractive Index:	       1.33200
Wavelength [nm] :	       0.00000
Angle [°]       :	       0.00000
Duration [s]    :	         1
FloatDur [ms]   :	          944
Stop TP [ms]   :	     60142
Runs            :	         1
Mode            :	"A-CH0+1  A-CH2+3 "
MeanCR0 [kHz]   :	      51.25893
MeanCR1 [kHz]   :	      54.18884
MeanCR2 [kHz]   :	      53.97161
MeanCR3 [kHz]   :	      54.98038

"Correlation"
  3.12500E-006	 -1.00000E+000	 -1.00000E+000	 -1.00000E+000	 -1.00000E+000
  6.25000E-006	 -1.00000E+000	 -1.00000E+000	 -1.00000E+000	 -1.00000E+000
  9.37500E-006	 -1.00000E+000	 -1.00000E+000	 -1.00000E+000	 -1.00000E+000
  1.25000E-005	 -1.00000E+000	 -1.00000E+000	 -1.00000E+000	 -1.00000E+000
  1.56250E-005	 -1.00000E+000	 -1.00000E+000	 -1.00000E+000	 -1.00000E+000
  1.87500E-005	 -1.00000E+000	 -1.00000E+000	 -1.00000E+000	 -1.00000E+000
  2.18750E-005	 -8.70947E-001	  6.16650E-001	  6.29689E-001	 -6.63478E-001
  2.50000E-005	  1.38411E+001	  1.13558E+001	  1.09899E+001	  2.49122E+001
  2.81250E-005	  5.96887E+000	  1.54045E+000	  2.02657E+000	  8.64696E+000
  3.12500E-005	  1.06485E+000	  1.54045E+000	  6.29689E-001	  4.60870E+000
  3.43750E-005	  2.22633E+000	  9.63075E-001	  1.09531E+000	  3.48696E+000
  3.75000E-005	  1.61478E-001	  5.01175E-001	  6.29689E-001	  4.04783E+000
  4.06250E-005	  1.06485E+000	  1.54045E+000	  5.13283E-001	  4.49652E+000
  4.37500E-005	  8.06743E-001	  6.16650E-001	  6.29689E-001	  2.58957E+000
  4.68750E-005	  1.45201E+000	  9.63075E-001	  9.78909E-001	  2.25304E+000
  5.00000E-005	  1.51653E+000	  7.89862E-001	  8.62502E-001	  2.14087E+000
  5.62500E-005	  8.71270E-001	  1.02081E+000	  5.13283E-001	  1.91652E+000
  6.25000E-005	  1.06485E+000	  7.89862E-001	  6.87892E-001	  1.46783E+000
  6.87500E-005	  6.13163E-001	  4.43437E-001	  5.71486E-001	  1.13130E+000
  7.50000E-005	  8.06743E-001	  5.58912E-001	  9.78908E-001	  1.35565E+000
  8.12500E-005	  6.13163E-001	  9.70123E-002	  1.05861E-001	  8.50870E-001
  8.75000E-005	  8.06743E-001	  8.47600E-001	  2.80470E-001	  8.50870E-001
  9.37500E-005	  1.32296E+000	  4.43437E-001	  7.46096E-001	  9.06957E-001
  1.00000E-004	  3.22794E-001	  6.74387E-001	  3.38673E-001	  1.01913E+000
  1.12500E-004	  5.48637E-001	  2.41356E-001	  3.96876E-001	  8.22826E-001
  1.25000E-004	  6.13163E-001	  3.56831E-001	  9.78908E-001	  8.22826E-001
  1.37500E-004	  6.13163E-001	  5.58912E-001	  3.67775E-001	  8.78913E-001
  1.50000E-004	  1.61478E-001	  5.87781E-001	  3.09572E-001	  9.35000E-001
  1.62500E-004	  6.45427E-001	  4.72306E-001	  2.80470E-001	  5.98478E-001
  1.75000E-004	  4.84110E-001	  6.74387E-001	  3.96876E-001	  6.82609E-001
  1.87500E-004	  3.87320E-001	  6.16650E-001	  2.51368E-001	  5.42391E-001
  2.00000E-004	  4.51847E-001	  6.59952E-001	  3.24122E-001	  4.16196E-001
  2.25000E-004	  2.42135E-001	  5.15609E-001	  6.44240E-001	  5.70435E-001
  2.50000E-004	  5.97031E-001	  6.45518E-001	  5.56935E-001	  1.01913E+000
  2.75000E-004	  6.45426E-001	  4.00134E-001	  4.55079E-001	  5.98478E-001
  3.00000E-004	  4.67978E-001	  6.74387E-001	  3.96876E-001	  3.46087E-001
  3.25000E-004	  6.61558E-001	  6.16649E-001	  3.24122E-001	  5.14348E-001
  3.50000E-004	  6.45426E-001	  3.13527E-001	  5.71486E-001	  4.58261E-001
  3.75000E-004	  4.84110E-001	  4.72306E-001	  6.29689E-001	  5.00326E-001
  4.00000E-004	  5.40570E-001	  3.85699E-001	  4.98731E-001	  4.51249E-001
  4.50000E-004	  5.16373E-001	  4.36219E-001	  5.78760E-001	  3.88151E-001
  5.00000E-004	  7.58347E-001	  5.08391E-001	  4.98731E-001	  6.05488E-001
  5.50000E-004	  4.76043E-001	  4.65088E-001	  5.86005E-001	  3.81141E-001
  6.00000E-004	  6.53491E-001	  6.23866E-001	  4.55050E-001	  5.07336E-001
  6.50000E-004	  5.97031E-001	  6.02214E-001	  5.05977E-001	  6.12499E-001
  7.00000E-004	  5.56702E-001	  4.86739E-001	  4.55050E-001	  3.32065E-001
  7.50000E-004	  7.50281E-001	  4.93956E-001	  4.11399E-001	  3.81141E-001
  8.00000E-004	  6.57523E-001	  4.97564E-001	  4.29614E-001	  4.93313E-001
  9.00000E-004	  4.96207E-001	  6.41907E-001	  3.75048E-001	  5.03829E-001
  1.00000E-003	  5.36536E-001	  4.54261E-001	  3.71410E-001	  4.09183E-001
  1.10000E-003	  4.76042E-001	  6.34690E-001	  4.95092E-001	  4.23205E-001
  1.20000E-003	  4.27647E-001	  5.26432E-001	  4.73266E-001	  4.19699E-001
  1.30000E-003	  5.28470E-001	  5.15607E-001	  6.00585E-001	  4.75786E-001
  1.40000E-003	  6.77687E-001	  5.91387E-001	  4.00485E-001	  4.51248E-001
  1.50000E-003	  4.15549E-001	  4.75912E-001	  4.22310E-001	  5.35378E-001
  1.60000E-003	  5.70845E-001	  5.39060E-001	  3.76919E-001	  6.00226E-001
  1.80000E-003	  5.10351E-001	  5.06583E-001	  4.95148E-001	  5.19601E-001
  2.00000E-003	  5.40598E-001	  5.53494E-001	  4.31486E-001	  4.28460E-001
  2.20000E-003	  4.47839E-001	  3.78478E-001	  4.38762E-001	  5.44139E-001
  2.40000E-003	  5.76895E-001	  5.06583E-001	  4.06021E-001	  4.86300E-001
  2.60000E-003	  4.76070E-001	  4.79518E-001	  4.93329E-001	  5.51150E-001
  2.80000E-003	  5.00268E-001	  4.52454E-001	  4.33305E-001	  5.49397E-001
  3.00000E-003	  4.15576E-001	  3.80282E-001	  4.07813E-001	  5.17849E-001
  3.20000E-003	  4.91220E-001	  4.52477E-001	  3.83335E-001	  4.48612E-001
  3.60000E-003	  5.17434E-001	  4.59695E-001	  4.29691E-001	  4.95058E-001
  4.00000E-003	  5.52692E-001	  4.22706E-001	  4.54246E-001	  5.11709E-001
  4.40000E-003	  5.47650E-001	  5.05705E-001	  3.67820E-001	  5.59908E-001
  4.80000E-003	  4.90181E-001	  5.08411E-001	  4.60613E-001	  5.31865E-001
  5.20000E-003	  5.13370E-001	  4.61499E-001	  4.36995E-001	  5.10833E-001
  5.60000E-003	  4.93205E-001	  4.87662E-001	  3.76059E-001	  5.97592E-001
  6.00000E-003	  5.48659E-001	  4.53408E-001	  3.94248E-001	  4.92429E-001
  6.40000E-003	  5.43135E-001	  4.80070E-001	  4.06572E-001	  5.03812E-001
  7.20000E-003	  5.02804E-001	  4.92250E-001	  4.77970E-001	  4.69196E-001
  8.00000E-003	  4.59449E-001	  4.94505E-001	  4.52503E-001	  4.63938E-001
  8.80000E-003	  5.31036E-001	  4.38992E-001	  4.31129E-001	  4.61747E-001
  9.60000E-003	  5.16416E-001	  4.58389E-001	  4.27036E-001	  5.29664E-001
  1.04000E-002	  5.27475E-001	  4.58840E-001	  4.09728E-001	  5.02497E-001
  1.12000E-002	  4.80088E-001	  4.78688E-001	  4.07427E-001	  5.38866E-001
  1.20000E-002	  4.75047E-001	  4.92672E-001	  4.25616E-001	  5.17395E-001
  1.28000E-002	  4.84636E-001	  4.82109E-001	  4.58254E-001	  5.13650E-001
  1.44000E-002	  4.83375E-001	  4.78500E-001	  3.96176E-001	  5.16936E-001
  1.60000E-002	  4.84888E-001	  4.59751E-001	  4.26646E-001	  4.96123E-001
  1.76000E-002	  4.70268E-001	  4.67899E-001	  4.22099E-001	  4.89551E-001
  1.92000E-002	  5.09842E-001	  4.55719E-001	  4.26646E-001	  5.03134E-001
  2.08000E-002	  4.90433E-001	  4.53718E-001	  4.21644E-001	  5.04668E-001
  2.24000E-002	  4.95222E-001	  5.00830E-001	  3.94584E-001	  5.06201E-001
  2.40000E-002	  5.12331E-001	  4.81883E-001	  4.11356E-001	  5.07516E-001
  2.56000E-002	  5.02365E-001	  4.88359E-001	  4.09321E-001	  4.78914E-001
  2.88000E-002	  4.77916E-001	  4.89854E-001	  3.93542E-001	  4.89868E-001
  3.20000E-002	  4.92283E-001	  4.59515E-001	  4.31011E-001	  5.02465E-001
  3.52000E-002	  4.90015E-001	  4.71132E-001	  4.41842E-001	  4.89320E-001
  3.84000E-002	  5.03499E-001	  4.79929E-001	  4.28623E-001	  4.76613E-001
  4.16000E-002	  4.75648E-001	  4.70314E-001	  4.32404E-001	  5.05313E-001
  4.48000E-002	  4.63171E-001	  4.55427E-001	  4.21260E-001	  5.03560E-001
  4.80000E-002	  4.74765E-001	  4.56667E-001	  4.12646E-001	  4.85267E-001
  5.12000E-002	  4.71535E-001	  4.55096E-001	  4.03628E-001	  4.95301E-001
  5.76000E-002	  4.74559E-001	  4.54814E-001	  4.07211E-001	  4.74377E-001
  6.40000E-002	  4.90501E-001	  4.47398E-001	  3.93506E-001	  4.72872E-001
  7.04000E-002	  4.84042E-001	  4.65501E-001	  4.12757E-001	  4.83196E-001
  7.68000E-002	  4.67154E-001	  4.54730E-001	  3.91145E-001	  4.74815E-001
  8.32000E-002	  4.71817E-001	  4.35809E-001	  3.98597E-001	  4.66489E-001
  8.96000E-002	  4.67500E-001	  4.60003E-001	  3.80513E-001	  4.70652E-001
  9.60000E-002	  4.82308E-001	  4.45255E-001	  4.06559E-001	  4.81607E-001
  1.02400E-001	  4.70835E-001	  4.31900E-001	  3.96962E-001	  4.82454E-001
  1.15200E-001	  4.60814E-001	  4.40389E-001	  3.97506E-001	  4.63906E-001
  1.28000E-001	  4.56435E-001	  4.29079E-001	  3.88005E-001	  4.53579E-001
  1.40800E-001	  4.48085E-001	  4.11734E-001	  3.63118E-001	  4.52921E-001
  1.53600E-001	  4.35953E-001	  4.22254E-001	  3.77627E-001	  4.42073E-001
  1.66400E-001	  4.27446E-001	  4.17685E-001	  3.62014E-001	  4.40128E-001
  1.79200E-001	  4.28706E-001	  4.07813E-001	  3.79850E-001	  4.33828E-001
  1.92000E-001	  4.19475E-001	  4.03186E-001	  3.69160E-001	  4.24186E-001
  2.04800E-001	  4.20038E-001	  4.01976E-001	  3.51354E-001	  4.20961E-001
  2.30400E-001	  3.95620E-001	  3.80791E-001	  3.43785E-001	  4.10221E-001
  2.56000E-001	  3.82279E-001	  3.69223E-001	  3.31060E-001	  3.87768E-001
  2.81600E-001	  3.79270E-001	  3.51522E-001	  3.25224E-001	  3.88043E-001
  3.07200E-001	  3.54275E-001	  3.38158E-001	  3.08292E-001	  3.62320E-001
  3.32800E-001	  3.38315E-001	  3.28328E-001	  2.93324E-001	  3.50790E-001
  3.58400E-001	  3.35239E-001	  3.20121E-001	  2.86660E-001	  3.39947E-001
  3.84000E-001	  3.01147E-001	  3.06441E-001	  2.74235E-001	  3.26184E-001
  4.09600E-001	  2.90365E-001	  2.86378E-001	  2.60437E-001	  3.12252E-001
  4.60800E-001	  2.65581E-001	  2.58664E-001	  2.34222E-001	  2.89205E-001
  5.12000E-001	  2.40523E-001	  2.43183E-001	  2.16293E-001	  2.60359E-001
  5.63200E-001	  2.21722E-001	  2.16756E-001	  2.00304E-001	  2.46920E-001
  6.14400E-001	  2.05602E-001	  1.94616E-001	  1.83906E-001	  2.18602E-001
  6.65600E-001	  1.73272E-001	  1.69587E-001	  1.58180E-001	  1.97067E-001
  7.16800E-001	  1.65595E-001	  1.63061E-001	  1.45836E-001	  1.78720E-001
  7.68000E-001	  1.49379E-001	  1.39110E-001	  1.34662E-001	  1.59851E-001
  8.19200E-001	  1.30270E-001	  1.30473E-001	  1.19869E-001	  1.46860E-001
  9.21600E-001	  1.04081E-001	  1.03464E-001	  9.84826E-002	  1.21233E-001
  1.02400E+000	  8.13180E-002	  8.76158E-002	  7.58958E-002	  1.07643E-001
  1.12640E+000	  6.67265E-002	  6.82128E-002	  6.01458E-002	  8.65782E-002
  1.22880E+000	  5.41181E-002	  5.58116E-002	  5.13214E-002	  7.69705E-002
  1.33120E+000	  4.13262E-002	  4.22031E-002	  3.76980E-002	  6.56543E-002
  1.43360E+000	  3.23524E-002	  3.13268E-002	  2.69356E-002	  5.43973E-002
  1.53600E+000	  2.51967E-002	  2.76239E-002	  2.22343E-002	  4.66393E-002
  1.63840E+000	  2.79221E-002	  1.96472E-002	  1.29961E-002	  3.81109E-002
  1.84320E+000	  2.16764E-002	  8.88386E-003	  1.78955E-003	  3.03394E-002
  2.04800E+000	  1.05821E-002	  9.87960E-003	 -9.69265E-003	  2.59009E-002
  2.25280E+000	  3.03449E-003	  8.20378E-003	 -1.65873E-002	  1.98152E-002
  2.45760E+000	 -7.97403E-003	  1.13126E-002	 -1.60429E-002	  1.55927E-002
  2.66240E+000	 -1.85529E-002	  8.03710E-003	 -9.05189E-003	  1.43700E-002
  2.86720E+000	 -1.60578E-002	  4.12332E-003	 -6.98671E-003	  1.44529E-002
  3.07200E+000	 -1.73800E-002	 -2.42083E-003	 -2.80850E-003	  1.44773E-002
  3.27680E+000	 -1.46372E-002	 -1.51346E-002	 -2.22061E-003	  1.28283E-002
  3.68640E+000	 -1.33456E-002	 -2.84447E-002	 -1.02723E-002	  3.01562E-003
  4.09600E+000	 -1.03491E-002	 -3.11749E-002	 -2.08732E-002	 -7.35208E-003
  4.50560E+000	  5.29106E-003	 -2.49373E-002	 -1.64064E-002	 -8.18922E-003
  4.91520E+000	  1.37125E-002	 -1.25532E-002	 -1.37584E-002	 -1.21984E-002
  5.32480E+000	  1.29824E-002	 -1.71103E-003	 -9.21670E-003	 -2.57360E-002
  5.73440E+000	  9.36803E-003	 -3.26840E-003	 -1.08582E-002	 -2.91588E-002
  6.14400E+000	  4.41359E-003	  2.14463E-003	 -7.93332E-003	 -1.96127E-002
  6.55360E+000	  1.11190E-003	  3.89131E-003	  2.33587E-004	 -3.94264E-003
  7.37280E+000	 -1.40419E-002	  8.21047E-003	  6.57052E-003	 -1.54191E-002
  8.19200E+000	 -1.24675E-002	  9.89890E-003	 -8.57824E-003	 -1.55931E-002
  9.01120E+000	 -5.54006E-003	  2.77222E-003	  1.39672E-003	 -3.07410E-002
  9.83040E+000	 -2.74274E-003	  1.08222E-002	  4.40768E-003	 -3.86819E-002
  1.06496E+001	 -1.24734E-002	  2.72092E-003	  1.45875E-002	 -4.52197E-002
  1.14688E+001	 -3.54553E-003	  1.06254E-002	  1.46852E-002	 -2.02517E-002
  1.22880E+001	  1.79202E-003	  1.18481E-002	  2.40148E-002	  6.88558E-003
  1.31072E+001	 -6.91042E-003	  1.22290E-002	  1.69092E-002	  7.72970E-003
  1.47456E+001	 -9.98183E-003	 -4.04303E-003	  3.07796E-003	  1.04278E-002
  1.63840E+001	 -4.10846E-003	 -1.07567E-002	  6.44190E-003	  4.93452E-003
  1.80224E+001	 -2.83446E-003	  1.26138E-002	 -3.23401E-003	 -1.27745E-002
  1.96608E+001	 -7.40443E-003	  2.79330E-003	  5.66578E-003	 -1.71377E-002
  2.12992E+001	 -1.81326E-002	 -3.75818E-005	  1.59477E-002	 -5.55976E-003
  2.29376E+001	 -1.91795E-002	  1.61605E-002	  2.74832E-002	 -1.57603E-002
  2.45760E+001	 -7.56937E-003	  1.08221E-002	  9.90510E-003	 -1.00854E-002
  2.62144E+001	 -1.33352E-002	  9.32838E-004	 -8.47072E-003	 -6.97207E-004
  2.94912E+001	  1.02232E-002	  8.69949E-004	  1.47929E-003	  2.56328E-002
  3.27680E+001	 -1.31620E-002	  1.88946E-002	  9.02452E-004	  1.73380E-002
  3.60448E+001	 -1.04026E-002	  1.81040E-003	  1.06635E-002	  6.87927E-003
  3.93216E+001	  1.57342E-002	 -5.32264E-003	  2.98578E-003	 -7.16337E-003
  4.25984E+001	  4.90691E-003	  1.12175E-002	  5.26861E-003	 -1.02410E-002
  4.58752E+001	  4.42221E-003	  9.19025E-003	  8.12159E-003	 -5.43267E-004
  4.91520E+001	  9.51444E-003	  9.86249E-003	  5.26844E-003	  2.22207E-003
  5.24288E+001	  1.35006E-002	  1.52744E-002	 -3.42848E-003	  3.29034E-003
  5.89824E+001	  5.14474E-003	  9.19804E-003	 -8.23593E-004	  2.39398E-003
  6.55360E+001	  6.07035E-003	 -1.33232E-002	 -8.55291E-005	  4.26192E-003
  7.20896E+001	 -2.44257E-003	  9.43444E-003	  1.29696E-003	 -1.14533E-002
  7.86432E+001	  2.22294E-003	 -1.22710E-003	 -3.70627E-003	  2.31487E-002
  8.51968E+001	 -9.07563E-003	 -8.74685E-004	  2.08417E-003	 -3.06427E-003
  9.17504E+001	  2.79846E-003	  2.93581E-003	  4.00001E-003	  7.87407E-003
  9.83040E+001	 -1.04199E-002	  3.09554E-003	  1.80304E-003	 -1.49660E-002
  1.04858E+002	 -6.35401E-003	  5.02267E-003	 -3.59548E-003	 -1.13220E-002
  1.17965E+002	  7.00545E-003	  8.33637E-003	 -6.73274E-003	 -5.52004E-004
  1.31072E+002	  1.06077E-004	  6.03418E-003	 -2.62437E-005	 -2.48050E-003
  1.44179E+002	 -1.72105E-003	  1.40530E-003	 -8.13469E-004	 -1.62715E-003
  1.57286E+002	  7.51578E-004	  5.76145E-003	 -4.61651E-003	 -4.86493E-003
  1.70394E+002	 -1.26750E-002	  1.28445E-003	  7.01587E-003	  2.58221E-003
  1.83501E+002	  2.53528E-003	 -2.98268E-003	  6.48348E-003	  1.56208E-003
  1.96608E+002	  1.09436E-002	  1.72293E-002	  2.33234E-003	 -1.67294E-002
  2.09715E+002	 -1.98223E-003	  4.91690E-003	  7.59830E-003	  4.25853E-003
  2.35930E+002	 -4.39605E-003	 -3.48541E-004	  7.29383E-003	 -2.54275E-003
  2.62144E+002	  1.09070E-002	 -7.01453E-003	  1.65510E-004	  5.28572E-003
  2.88358E+002	 -1.25934E-002	  1.04122E-002	 -4.34823E-003	 -7.25976E-004
  3.14573E+002	  1.60687E-002	  2.85715E-003	 -3.51223E-003	  2.25032E-003
  3.40787E+002	 -9.21503E-003	  9.73657E-003	  1.44511E-003	 -3.22730E-005
  3.67002E+002	  7.21745E-004	  5.53630E-003	 -6.14756E-003	 -2.40748E-003
  3.93216E+002	 -5.25672E-004	  2.06510E-003	 -9.50646E-003	 -5.29119E-003

"Count Rate"
       0.01311	      61.56921	      56.53381	      57.44934	      72.40295
       0.02621	      67.29126	      56.53381	      54.39758	      54.62646
       0.03932	      36.16333	      51.80359	      79.80347	      62.33215
       0.05243	      44.47937	      42.19055	      56.15234	      54.77905
       0.06554	      55.00793	      61.49292	      63.55286	      38.52844
       0.07864	      40.43579	      45.16602	      54.24500	      63.32397
       0.09175	      37.61292	      47.22595	      63.85803	      42.41943
       0.10486	      45.08972	      56.91528	      45.01343	      56.76270
       0.11796	      41.19873	      63.78174	      56.76270	      85.90698
       0.13107	      46.99707	      54.32129	      62.33215	      57.90710
       0.14418	      55.16052	      43.18237	      63.01880	      41.88538
       0.15729	      42.87720	      64.62097	      38.14697	      50.43030
       0.17039	      62.10327	      57.75452	      51.80359	      51.42212
       0.18350	      40.05432	      76.90430	      53.71094	      59.20410
       0.19661	      32.65381	      56.68640	      34.48486	      41.19873
       0.20972	      59.20410	      69.12231	      42.95349	      42.41943
       0.22282	      43.86902	      66.07056	      51.34583	      53.93982
       0.23593	      53.78723	      63.40027	      47.22595	      28.07617
       0.24904	      43.86902	      49.43848	      51.49841	      42.11426
       0.26214	      53.10059	      94.52820	      62.17957	      52.87170
       0.27525	      44.86084	      43.18237	      43.64014	      44.25049
       0.28836	      46.23413	      48.29407	      29.75464	      45.92896
       0.30147	      64.16321	      54.93164	      48.44666	      45.62378
       0.31457	      47.83630	      74.38660	      65.30762	      48.29407
       0.32768	      33.49304	      29.29688	      43.33496	      35.09521
       0.34079	      40.96985	      57.60193	      46.15784	      83.00781
       0.35389	      62.78992	      57.37305	      51.42212	      54.55017
       0.36700	      59.20410	      46.00525	      63.78174	      50.73547
       0.38011	      41.04614	      62.48474	      42.19055	      64.01062
       0.39322	      43.41125	      67.52014	      58.74634	      51.26953
       0.40632	      71.25854	      62.94250	      59.73816	      43.41125
       0.41943	      68.13049	      43.56384	      43.79272	      60.42480
       0.43254	      51.19324	      45.24231	      45.77637	      57.14417
       0.44564	      50.73547	      37.15515	      48.75183	      58.28857
       0.45875	      69.35120	      61.87439	      52.41394	      39.13879
       0.47186	      41.50391	      52.71912	      51.42212	      59.43298
       0.48497	      59.66187	      51.95618	      53.17688	      56.07605
       0.49807	      64.08691	      47.98889	      40.89355	      50.27771
       0.51118	      54.93164	      55.92346	      36.69739	      45.39490
       0.52429	      31.43311	      42.19055	      43.56384	      56.76270
       0.53740	      39.52026	      49.51477	      37.53662	      35.17151
       0.55050	      47.37854	      55.38940	      44.02161	      73.39478
       0.56361	      72.63184	      42.41943	      61.41663	      59.12781
       0.57672	      36.16333	      64.54468	      50.27771	      42.95349
       0.58982	      41.96167	      69.73267	      71.25854	      78.12500
       0.60293	      49.43848	      53.78723	      48.90442	      65.68909
       0.61604	      64.08691	      36.39221	      45.39490	      54.16870
       0.62915	      46.23413	      52.33765	      60.50110	      37.53662
       0.64225	      43.71643	      41.27502	      56.38123	      63.85803
       0.65536	      42.11426	      36.39221	      67.90161	      45.24231
       0.66847	      42.34314	      49.28589	      66.98608	      78.12500
       0.68157	      83.08411	      43.41125	      50.73547	      54.39758
       0.69468	      36.16333	      66.14685	      43.41125	      62.17957
       0.70779	      47.53113	      50.43030	      47.45483	      53.40576
       0.72090	      65.53650	      42.95349	      37.00256	      47.14966
       0.73400	      53.10059	      43.71643	      58.74634	      75.75989
       0.74711	      52.41394	      54.09241	      45.92896	      50.20142
       0.76022	      55.16052	      51.49841	      56.30493	      62.25586
       0.77332	      53.93982	      37.91809	      55.31311	      52.94800
       0.78643	      38.29956	      36.84998	      64.08691	      45.47119
       0.79954	      67.67273	      48.59924	      67.74902	      60.34851
       0.81265	      51.57471	      40.89355	      59.20410	      54.85535
       0.82575	      36.23962	      55.61829	      70.26672	      58.97522
       0.83886	      50.58289	      40.28320	      64.08691	      32.57751
       0.85197	      57.52563	      53.10059	      59.50928	      53.17688
       0.86508	      57.37305	      57.14417	      50.12512	      57.06787
       0.87818	      51.65100	      55.16052	      53.71094	      50.50659
       0.89129	      48.75183	      76.37024	      51.65100	      57.52563
       0.90440	      55.99976	      62.56104	      54.55017	      67.90161
       0.91750	      49.74365	      45.92896	      76.21765	      54.16870
       0.93061	      29.06799	      46.08154	      47.22595	      46.84448

Monitor Diode	      1.00
